#K-Path(1/A) Energy-Level(eV)
# NKPTS & NBANDS: 120  18
# Band-Index    1
   0.00000    -25.098187
   0.06047    -25.099302
   0.12094    -25.102051
   0.18141    -25.105376
   0.24188    -25.108389
   0.30235    -25.110902
   0.36282    -25.112649
   0.42330    -25.113414
   0.48377    -25.115440
   0.54424    -25.118560
   0.60471    -25.122148
   0.66518    -25.125640
   0.72565    -25.128807
   0.78612    -25.131399
   0.84659    -25.133981
   0.90706    -25.136041
   0.96753    -25.137727
   1.02800    -25.139057
   1.08847    -25.139797
   1.14894    -25.139558
   1.14894    -25.139558
   1.17032    -25.139726
   1.19170    -25.140814
   1.21308    -25.141563
   1.23446    -25.142691
   1.25584    -25.143896
   1.27722    -25.145419
   1.29860    -25.147062
   1.31998    -25.148779
   1.34136    -25.150528
   1.36274    -25.152271
   1.38412    -25.153977
   1.40550    -25.155621
   1.42688    -25.157128
   1.44826    -25.158514
   1.46964    -25.159850
   1.49102    -25.161055
   1.51240    -25.162446
   1.53378    -25.163385
   1.55516    -25.164167
   1.55516    -25.164167
   1.61930    -25.165709
   1.68344    -25.165657
   1.74757    -25.164160
   1.81171    -25.161347
   1.87585    -25.157157
   1.93999    -25.152291
   2.00413    -25.146833
   2.06827    -25.140674
   2.13241    -25.137334
   2.19655    -25.134597
   2.26069    -25.131309
   2.32482    -25.127579
   2.38896    -25.123206
   2.45310    -25.118611
   2.51724    -25.113513
   2.58138    -25.108298
   2.64552    -25.103410
   2.70966    -25.099656
   2.77380    -25.098187
   2.77380    -25.098187
   2.82617    -25.098936
   2.87854    -25.100970
   2.93090    -25.103822
   2.98327    -25.107034
   3.03564    -25.110325
   3.08801    -25.113305
   3.14038    -25.116278
   3.19275    -25.118889
   3.24512    -25.121140
   3.29749    -25.122980
   3.34986    -25.124608
   3.40223    -25.125898
   3.45460    -25.126543
   3.50697    -25.127326
   3.55934    -25.127744
   3.61170    -25.128449
   3.66407    -25.128689
   3.71644    -25.129006
   3.76881    -25.129062
   3.76881    -25.129062
   3.81157    -25.129863
   3.85433    -25.131979
   3.89709    -25.134980
   3.93985    -25.138837
   3.98261    -25.142725
   4.02537    -25.146638
   4.06813    -25.150136
   4.11089    -25.153398
   4.15365    -25.156085
   4.19641    -25.158391
   4.23916    -25.160266
   4.28192    -25.161583
   4.32468    -25.162412
   4.36744    -25.162930
   4.41020    -25.163011
   4.45296    -25.162721
   4.49572    -25.162057
   4.53848    -25.161250
   4.58124    -25.160158
   4.58124    -25.160158
   4.61147    -25.160050
   4.64171    -25.159666
   4.67194    -25.159086
   4.70218    -25.158368
   4.73242    -25.157458
   4.76265    -25.156369
   4.79289    -25.155117
   4.82312    -25.153618
   4.85336    -25.152009
   4.88359    -25.150448
   4.91383    -25.148820
   4.94406    -25.147176
   4.97430    -25.145373
   5.00453    -25.143862
   5.03477    -25.142497
   5.06500    -25.141385
   5.09524    -25.140640
   5.12548    -25.139803
   5.15571    -25.139558
 
# Band-Index    2
   5.15571    -25.139556
   5.12548    -25.139801
   5.09524    -25.140638
   5.06500    -25.141383
   5.03477    -25.142495
   5.00453    -25.143860
   4.97430    -25.145371
   4.94406    -25.147175
   4.91383    -25.148818
   4.88359    -25.150446
   4.85336    -25.152007
   4.82312    -25.153616
   4.79289    -25.155116
   4.76265    -25.156367
   4.73242    -25.157457
   4.70218    -25.158366
   4.67194    -25.159084
   4.64171    -25.159664
   4.61147    -25.160048
   4.58124    -25.160156
   4.58124    -25.160156
   4.53848    -25.158630
   4.49572    -25.157057
   4.45296    -25.155465
   4.41020    -25.153612
   4.36744    -25.151637
   4.32468    -25.149540
   4.28192    -25.147362
   4.23916    -25.145117
   4.19641    -25.142781
   4.15365    -25.140727
   4.11089    -25.138650
   4.06813    -25.136585
   4.02537    -25.134732
   3.98261    -25.132974
   3.93985    -25.131685
   3.89709    -25.130486
   3.85433    -25.129649
   3.81157    -25.129236
   3.76881    -25.129061
   3.76881    -25.129061
   3.71644    -25.129006
   3.66407    -25.128689
   3.61170    -25.128448
   3.55934    -25.127743
   3.50697    -25.127325
   3.45460    -25.126543
   3.40223    -25.125898
   3.34986    -25.124607
   3.29749    -25.122980
   3.24512    -25.121139
   3.19275    -25.118888
   3.14038    -25.116277
   3.08801    -25.113305
   3.03564    -25.110325
   2.98327    -25.107033
   2.93090    -25.103821
   2.87854    -25.100970
   2.82617    -25.098936
   2.77380    -25.098187
   2.77380    -25.098187
   2.70966    -25.098569
   2.64552    -25.099724
   2.58138    -25.101652
   2.51724    -25.104148
   2.45310    -25.107617
   2.38896    -25.111827
   2.32482    -25.116923
   2.26069    -25.121975
   2.19655    -25.128011
   2.13241    -25.134290
   2.06827    -25.139603
   2.00413    -25.141217
   1.93999    -25.142390
   1.87585    -25.142865
   1.81171    -25.143276
   1.74757    -25.143025
   1.68344    -25.142920
   1.61930    -25.142621
   1.55516    -25.142185
   1.55516    -25.142184
   1.53378    -25.142027
   1.51240    -25.141864
   1.49102    -25.141651
   1.46964    -25.141485
   1.44826    -25.141318
   1.42688    -25.141152
   1.40550    -25.141161
   1.38412    -25.141005
   1.36274    -25.140855
   1.34136    -25.140711
   1.31998    -25.140575
   1.29860    -25.140447
   1.27722    -25.140330
   1.25584    -25.140224
   1.23446    -25.140272
   1.21308    -25.140201
   1.19170    -25.139584
   1.17032    -25.139565
   1.14894    -25.139556
   1.14894    -25.139556
   1.08847    -25.139795
   1.02800    -25.139055
   0.96753    -25.137725
   0.90706    -25.136039
   0.84659    -25.133979
   0.78612    -25.131397
   0.72565    -25.128805
   0.66518    -25.125638
   0.60471    -25.122146
   0.54424    -25.118558
   0.48377    -25.115438
   0.42330    -25.112008
   0.36282    -25.108717
   0.30235    -25.105650
   0.24188    -25.103145
   0.18141    -25.101152
   0.12094    -25.099527
   0.06047    -25.098524
   0.00000    -25.098187
 
# Band-Index    3
   0.00000    -25.098184
   0.06047    -25.098522
   0.12094    -25.099525
   0.18141    -25.101150
   0.24188    -25.103143
   0.30235    -25.105648
   0.36282    -25.108714
   0.42330    -25.112006
   0.48377    -25.113305
   0.54424    -25.112002
   0.60471    -25.109618
   0.66518    -25.106090
   0.72565    -25.101381
   0.78612    -25.095415
   0.84659    -25.088302
   0.90706    -25.080124
   0.96753    -25.070995
   1.02800    -25.060861
   1.08847    -25.049666
   1.14894    -25.037499
   1.14894    -25.037499
   1.17032    -25.037470
   1.19170    -25.037547
   1.21308    -25.037438
   1.23446    -25.037343
   1.25584    -25.037213
   1.27722    -25.037058
   1.29860    -25.036876
   1.31998    -25.036666
   1.34136    -25.036433
   1.36274    -25.036176
   1.38412    -25.035898
   1.40550    -25.035602
   1.42688    -25.035095
   1.44826    -25.034777
   1.46964    -25.034450
   1.49102    -25.034118
   1.51240    -25.033924
   1.53378    -25.033612
   1.55516    -25.033309
   1.55516    -25.033309
   1.61930    -25.032508
   1.68344    -25.032033
   1.74757    -25.032116
   1.81171    -25.033117
   1.87585    -25.035415
   1.93999    -25.039954
   2.00413    -25.046800
   2.06827    -25.055794
   2.13241    -25.064821
   2.19655    -25.073334
   2.26069    -25.081027
   2.32482    -25.087390
   2.38896    -25.091946
   2.45310    -25.095281
   2.51724    -25.097537
   2.58138    -25.098498
   2.64552    -25.098583
   2.70966    -25.098332
   2.77380    -25.098184
   2.77380    -25.098184
   2.82617    -25.098037
   2.87854    -25.097601
   2.93090    -25.096885
   2.98327    -25.095769
   3.03564    -25.094355
   3.08801    -25.092982
   3.14038    -25.091422
   3.19275    -25.089996
   3.24512    -25.087832
   3.29749    -25.086252
   3.34986    -25.084645
   3.40223    -25.083052
   3.45460    -25.081533
   3.50697    -25.080137
   3.55934    -25.078612
   3.61170    -25.077618
   3.66407    -25.076853
   3.71644    -25.075894
   3.76881    -25.075766
   3.76881    -25.075766
   3.81157    -25.074807
   3.85433    -25.072131
   3.89709    -25.068237
   3.93985    -25.063740
   3.98261    -25.058884
   4.02537    -25.054204
   4.06813    -25.049339
   4.11089    -25.044638
   4.15365    -25.039888
   4.19641    -25.035082
   4.23916    -25.030244
   4.28192    -25.025333
   4.32468    -25.019991
   4.36744    -25.014318
   4.41020    -25.008232
   4.45296    -25.001715
   4.49572    -24.994808
   4.53848    -24.987392
   4.58124    -24.979576
   4.58124    -24.979576
   4.61147    -24.980120
   4.64171    -24.981480
   4.67194    -24.984006
   4.70218    -24.987266
   4.73242    -24.991074
   4.76265    -24.995265
   4.79289    -24.999698
   4.82312    -25.004217
   4.85336    -25.008744
   4.88359    -25.013373
   4.91383    -25.017721
   4.94406    -25.021810
   4.97430    -25.025530
   5.00453    -25.028901
   5.03477    -25.031792
   5.06500    -25.034279
   5.09524    -25.036150
   5.12548    -25.037152
   5.15571    -25.037499
 
# Band-Index    4
   5.15571    -25.037486
   5.12548    -25.037139
   5.09524    -25.036137
   5.06500    -25.034267
   5.03477    -25.031779
   5.00453    -25.028889
   4.97430    -25.025517
   4.94406    -25.021798
   4.91383    -25.017710
   4.88359    -25.013362
   4.85336    -25.008733
   4.82312    -25.004206
   4.79289    -24.999688
   4.76265    -24.995256
   4.73242    -24.991065
   4.70218    -24.987257
   4.67194    -24.983998
   4.64171    -24.981473
   4.61147    -24.980114
   4.58124    -24.979570
   4.58124    -24.979570
   4.53848    -24.971236
   4.49572    -24.962764
   4.45296    -24.954541
   4.41020    -24.949235
   4.36744    -24.951033
   4.32468    -24.955927
   4.28192    -24.961438
   4.23916    -24.966926
   4.19641    -24.972111
   4.15365    -24.977094
   4.11089    -24.982053
   4.06813    -24.986378
   4.02537    -24.990478
   3.98261    -24.993884
   3.93985    -24.996822
   3.89709    -24.999063
   3.85433    -25.000362
   3.81157    -25.001426
   3.76881    -25.001782
   3.76881    -25.001782
   3.71644    -25.001902
   3.66407    -25.002378
   3.61170    -25.003075
   3.55934    -25.004051
   3.50697    -25.005814
   3.45460    -25.007691
   3.40223    -25.009744
   3.34986    -25.012722
   3.29749    -25.016215
   3.24512    -25.020394
   3.19275    -25.024829
   3.14038    -25.029603
   3.08801    -25.034636
   3.03564    -25.039858
   2.98327    -25.045081
   2.93090    -25.049753
   2.87854    -25.053673
   2.82617    -25.056364
   2.77380    -25.057336
   2.77380    -25.057336
   2.70966    -25.056307
   2.64552    -25.053433
   2.58138    -25.049215
   2.51724    -25.044142
   2.45310    -25.038809
   2.38896    -25.033424
   2.32482    -25.028332
   2.26069    -25.023145
   2.19655    -25.018799
   2.13241    -25.014475
   2.06827    -25.009954
   2.00413    -25.003890
   1.93999    -24.995488
   1.87585    -24.983851
   1.81171    -24.970024
   1.74757    -24.954167
   1.68344    -24.937171
   1.61930    -24.935679
   1.55516    -24.955166
   1.55516    -24.955167
   1.53378    -24.961557
   1.51240    -24.967869
   1.49102    -24.973971
   1.46964    -24.980078
   1.44826    -24.986044
   1.42688    -24.992055
   1.40550    -24.997715
   1.38412    -25.003146
   1.36274    -25.008331
   1.34136    -25.013235
   1.31998    -25.017820
   1.29860    -25.022043
   1.27722    -25.025856
   1.25584    -25.029208
   1.23446    -25.032063
   1.21308    -25.034336
   1.19170    -25.036129
   1.17032    -25.037153
   1.14894    -25.037486
   1.14894    -25.037486
   1.08847    -25.024678
   1.02800    -25.011043
   0.96753    -24.996348
   0.90706    -24.981511
   0.84659    -24.966206
   0.78612    -24.975454
   0.72565    -24.986367
   0.66518    -24.996734
   0.60471    -25.006473
   0.54424    -25.015517
   0.48377    -25.023797
   0.42330    -25.031679
   0.36282    -25.038310
   0.30235    -25.044011
   0.24188    -25.048781
   0.18141    -25.052507
   0.12094    -25.055183
   0.06047    -25.056797
   0.00000    -25.057336
 
# Band-Index    5
   0.00000    -25.057336
   0.06047    -25.055290
   0.12094    -25.049745
   0.18141    -25.041762
   0.24188    -25.031834
   0.30235    -25.020970
   0.36282    -25.009236
   0.42330    -24.996711
   0.48377    -24.983912
   0.54424    -24.970313
   0.60471    -24.956328
   0.66518    -24.942044
   0.72565    -24.934695
   0.78612    -24.950710
   0.84659    -24.964075
   0.90706    -24.952279
   0.96753    -24.940228
   1.02800    -24.928076
   1.08847    -24.915442
   1.14894    -24.902958
   1.14894    -24.902958
   1.17032    -24.902999
   1.19170    -24.903480
   1.21308    -24.903696
   1.23446    -24.904025
   1.25584    -24.904324
   1.27722    -24.904826
   1.29860    -24.905411
   1.31998    -24.906079
   1.34136    -24.906829
   1.36274    -24.907660
   1.38412    -24.908569
   1.40550    -24.909557
   1.42688    -24.910601
   1.44826    -24.911741
   1.46964    -24.912955
   1.49102    -24.914241
   1.51240    -24.915999
   1.53378    -24.917464
   1.55516    -24.919000
   1.55516    -24.919000
   1.61930    -24.924317
   1.68344    -24.929977
   1.74757    -24.936169
   1.81171    -24.943112
   1.87585    -24.950148
   1.93999    -24.957918
   2.00413    -24.965920
   2.06827    -24.974271
   2.13241    -24.982477
   2.19655    -24.991314
   2.26069    -25.000053
   2.32482    -25.009238
   2.38896    -25.018107
   2.45310    -25.027003
   2.51724    -25.035713
   2.58138    -25.043729
   2.64552    -25.050554
   2.70966    -25.055476
   2.77380    -25.057336
   2.77380    -25.057336
   2.82617    -25.056364
   2.87854    -25.053673
   2.93090    -25.049753
   2.98327    -25.045081
   3.03564    -25.039858
   3.08801    -25.034636
   3.14038    -25.029603
   3.19275    -25.024829
   3.24512    -25.020394
   3.29749    -25.016215
   3.34986    -25.012722
   3.40223    -25.009744
   3.45460    -25.007691
   3.50697    -25.005813
   3.55934    -25.004051
   3.61170    -25.003074
   3.66407    -25.002378
   3.71644    -25.001902
   3.76881    -25.001782
   3.76881    -25.001782
   3.81157    -25.001250
   3.85433    -24.999623
   3.89709    -24.997129
   3.93985    -24.993362
   3.98261    -24.988481
   4.02537    -24.982692
   4.06813    -24.975731
   4.11089    -24.968063
   4.15365    -24.959664
   4.19641    -24.950824
   4.23916    -24.941812
   4.28192    -24.932722
   4.32468    -24.923492
   4.36744    -24.929291
   4.41020    -24.934871
   4.45296    -24.932862
   4.49572    -24.927464
   4.53848    -24.921365
   4.58124    -24.915093
   4.58124    -24.915093
   4.61147    -24.914840
   4.64171    -24.914094
   4.67194    -24.912984
   4.70218    -24.911757
   4.73242    -24.910482
   4.76265    -24.909260
   4.79289    -24.908150
   4.82312    -24.907082
   4.85336    -24.906212
   4.88359    -24.905586
   4.91383    -24.905029
   4.94406    -24.904472
   4.97430    -24.904070
   5.00453    -24.903780
   5.03477    -24.903550
   5.06500    -24.903396
   5.09524    -24.903345
   5.12548    -24.903101
   5.15571    -24.902958
 
# Band-Index    6
   5.15571    -24.902956
   5.12548    -24.903100
   5.09524    -24.903345
   5.06500    -24.903395
   5.03477    -24.903549
   5.00453    -24.903780
   4.97430    -24.904070
   4.94406    -24.904472
   4.91383    -24.905028
   4.88359    -24.905585
   4.85336    -24.906211
   4.82312    -24.907081
   4.79289    -24.908149
   4.76265    -24.909258
   4.73242    -24.910480
   4.70218    -24.911755
   4.67194    -24.912983
   4.64171    -24.914093
   4.61147    -24.914840
   4.58124    -24.915093
   4.58124    -24.915093
   4.53848    -24.908781
   4.49572    -24.902902
   4.45296    -24.900663
   4.41020    -24.906273
   4.36744    -24.914568
   4.32468    -24.920071
   4.28192    -24.909970
   4.23916    -24.899670
   4.19641    -24.889059
   4.15365    -24.878630
   4.11089    -24.868323
   4.06813    -24.858344
   4.02537    -24.848907
   3.98261    -24.840184
   3.93985    -24.832838
   3.89709    -24.827236
   3.85433    -24.823839
   3.81157    -24.822215
   3.76881    -24.821721
   3.76881    -24.821721
   3.71644    -24.821661
   3.66407    -24.821332
   3.61170    -24.821028
   3.55934    -24.820386
   3.50697    -24.819813
   3.45460    -24.818726
   3.40223    -24.817278
   3.34986    -24.815370
   3.29749    -24.813006
   3.24512    -24.810331
   3.19275    -24.807156
   3.14038    -24.803608
   3.08801    -24.799757
   3.03564    -24.795806
   2.98327    -24.791812
   2.93090    -24.787950
   2.87854    -24.784501
   2.82617    -24.781962
   2.77380    -24.780991
   2.77380    -24.780991
   2.70966    -24.783359
   2.64552    -24.788903
   2.58138    -24.795805
   2.51724    -24.803378
   2.45310    -24.811135
   2.38896    -24.818798
   2.32482    -24.826713
   2.26069    -24.834305
   2.19655    -24.841760
   2.13241    -24.849034
   2.06827    -24.855960
   2.00413    -24.862431
   1.93999    -24.868453
   1.87585    -24.874272
   1.81171    -24.879420
   1.74757    -24.896914
   1.68344    -24.916147
   1.61930    -24.919560
   1.55516    -24.901858
   1.55516    -24.901858
   1.53378    -24.896019
   1.51240    -24.896289
   1.49102    -24.896817
   1.46964    -24.897584
   1.44826    -24.898293
   1.42688    -24.899084
   1.40550    -24.899763
   1.38412    -24.900322
   1.36274    -24.900829
   1.34136    -24.901282
   1.31998    -24.901683
   1.29860    -24.902034
   1.27722    -24.902334
   1.25584    -24.902582
   1.23446    -24.902876
   1.21308    -24.903033
   1.19170    -24.902861
   1.17032    -24.902933
   1.14894    -24.902956
   1.14894    -24.902956
   1.08847    -24.890705
   1.02800    -24.878576
   0.96753    -24.868849
   0.90706    -24.883219
   0.84659    -24.897916
   0.78612    -24.912797
   0.72565    -24.927510
   0.66518    -24.918790
   0.60471    -24.902796
   0.54424    -24.887038
   0.48377    -24.871716
   0.42330    -24.856732
   0.36282    -24.842228
   0.30235    -24.828378
   0.24188    -24.815395
   0.18141    -24.803581
   0.12094    -24.792959
   0.06047    -24.784619
   0.00000    -24.780991
 
# Band-Index    7
   0.00000    -24.780991
   0.06047    -24.780434
   0.12094    -24.778783
   0.18141    -24.776092
   0.24188    -24.772379
   0.30235    -24.769821
   0.36282    -24.775002
   0.42330    -24.781051
   0.48377    -24.787620
   0.54424    -24.795297
   0.60471    -24.803759
   0.66518    -24.812906
   0.72565    -24.822677
   0.78612    -24.832761
   0.84659    -24.843652
   0.90706    -24.854967
   0.96753    -24.866635
   1.02800    -24.854777
   1.08847    -24.840639
   1.14894    -24.827319
   1.14894    -24.827319
   1.17032    -24.827609
   1.19170    -24.828888
   1.21308    -24.830240
   1.23446    -24.832257
   1.25584    -24.834768
   1.27722    -24.837737
   1.29860    -24.841124
   1.31998    -24.844889
   1.34136    -24.848994
   1.36274    -24.853402
   1.38412    -24.858075
   1.40550    -24.862983
   1.42688    -24.868082
   1.44826    -24.873371
   1.46964    -24.878811
   1.49102    -24.884376
   1.51240    -24.890244
   1.53378    -24.895428
   1.55516    -24.894510
   1.55516    -24.894510
   1.61930    -24.891423
   1.68344    -24.887797
   1.74757    -24.883624
   1.81171    -24.878512
   1.87585    -24.861261
   1.93999    -24.846537
   2.00413    -24.836231
   2.06827    -24.830436
   2.13241    -24.826097
   2.19655    -24.822008
   2.26069    -24.817348
   2.32482    -24.812496
   2.38896    -24.807051
   2.45310    -24.801345
   2.51724    -24.795879
   2.58138    -24.790460
   2.64552    -24.785698
   2.70966    -24.782274
   2.77380    -24.780991
   2.77380    -24.780991
   2.82617    -24.781961
   2.87854    -24.784501
   2.93090    -24.787950
   2.98327    -24.791811
   3.03564    -24.795805
   3.08801    -24.799757
   3.14038    -24.803608
   3.19275    -24.807156
   3.24512    -24.810331
   3.29749    -24.813006
   3.34986    -24.815370
