#K-Path(1/A) Energy-Level(eV)
# NKPTS & NBANDS:  71  18
# Band-Index    1
   0.00000    -28.195983
   0.05343    -28.195922
   0.10687    -28.195784
   0.16030    -28.195467
   0.21373    -28.194940
   0.26717    -28.194281
   0.32060    -28.193289
   0.37403    -28.192205
   0.42746    -28.190855
   0.48090    -28.189198
   0.53433    -28.187223
   0.58776    -28.185070
   0.64120    -28.182693
   0.69463    -28.180123
   0.74806    -28.177483
   0.80150    -28.174911
   0.85493    -28.172708
   0.90836    -28.171160
   0.96180    -28.170479
   0.96180    -28.170479
   1.01468    -28.171157
   1.06757    -28.172532
   1.12045    -28.174325
   1.17334    -28.176149
   1.22622    -28.177764
   1.27911    -28.178906
   1.33199    -28.180585
   1.38488    -28.183173
   1.43776    -28.185767
   1.49065    -28.188374
   1.54353    -28.190946
   1.59642    -28.193543
   1.64930    -28.195786
   1.70219    -28.198010
   1.75507    -28.199897
   1.80796    -28.201690
   1.86084    -28.203119
   1.91373    -28.204379
   1.96661    -28.205041
   2.01950    -28.205519
   2.07238    -28.205687
   2.07238    -28.205687
   2.13782    -28.206783
   2.20327    -28.209688
   2.26871    -28.213308
   2.33415    -28.217108
   2.39959    -28.220235
   2.46503    -28.222334
   2.46503    -28.222334
   2.51858    -28.223270
   2.57212    -28.223407
   2.62566    -28.222748
   2.67921    -28.221367
   2.73275    -28.219287
   2.78629    -28.216590
   2.83984    -28.213331
   2.89338    -28.209777
   2.94692    -28.205838
   3.00047    -28.201626
   3.05401    -28.199205
   3.10755    -28.197124
   3.16110    -28.194740
   3.21464    -28.192030
   3.26818    -28.189098
   3.32173    -28.185929
   3.37527    -28.182646
   3.42881    -28.179285
   3.48236    -28.176078
   3.53590    -28.173282
   3.58944    -28.171296
   3.64299    -28.170479
 
# Band-Index    2
   3.64299    -28.170478
   3.58944    -28.170864
   3.53590    -28.171580
   3.48236    -28.172765
   3.42881    -28.174457
   3.37527    -28.176674
   3.32173    -28.179223
   3.26818    -28.182220
   3.21464    -28.185596
   3.16110    -28.189441
   3.10755    -28.193350
   3.05401    -28.197431
   3.00047    -28.201000
   2.94692    -28.202560
   2.89338    -28.203785
   2.83984    -28.204755
   2.78629    -28.205496
   2.73275    -28.206045
   2.67921    -28.206438
   2.62566    -28.206624
   2.57212    -28.206682
   2.51858    -28.206640
   2.46503    -28.206515
   2.46503    -28.206515
   2.39959    -28.206470
   2.33415    -28.206252
   2.26871    -28.206033
   2.20327    -28.205830
   2.13782    -28.205726
   2.07238    -28.205685
   2.07238    -28.205685
   2.01950    -28.205518
   1.96661    -28.205039
   1.91373    -28.204377
   1.86084    -28.203118
   1.80796    -28.201688
   1.75507    -28.199895
   1.70219    -28.198008
   1.64930    -28.195784
   1.59642    -28.193541
   1.54353    -28.190944
   1.49065    -28.188372
   1.43776    -28.185765
   1.38488    -28.183171
   1.33199    -28.180584
   1.27911    -28.178246
   1.22622    -28.176137
   1.17334    -28.174179
   1.12045    -28.172666
   1.06757    -28.171553
   1.01468    -28.170866
   0.96180    -28.170478
   0.96180    -28.170478
   0.90836    -28.171159
   0.85493    -28.172707
   0.80150    -28.174911
   0.74806    -28.177482
   0.69463    -28.180123
   0.64120    -28.182693
   0.58776    -28.185070
   0.53433    -28.187222
   0.48090    -28.189198
   0.42746    -28.190854
   0.37403    -28.192205
   0.32060    -28.193288
   0.26717    -28.194280
   0.21373    -28.194940
   0.16030    -28.195466
   0.10687    -28.195784
   0.05343    -28.195922
   0.00000    -28.195983
 
# Band-Index    3
   0.00000    -28.153541
   0.05343    -28.153675
   0.10687    -28.154043
   0.16030    -28.154688
   0.21373    -28.155902
   0.26717    -28.156981
   0.32060    -28.158084
   0.37403    -28.159460
   0.42746    -28.160905
   0.48090    -28.162271
   0.53433    -28.163843
   0.58776    -28.165273
   0.64120    -28.166602
   0.69463    -28.167784
   0.74806    -28.168792
   0.80150    -28.169489
   0.85493    -28.170100
   0.90836    -28.170470
   0.96180    -28.170476
   0.96180    -28.170476
   1.01468    -28.170864
   1.06757    -28.171551
   1.12045    -28.172664
   1.17334    -28.174177
   1.22622    -28.176135
   1.27911    -28.178245
   1.33199    -28.179539
   1.38488    -28.179614
   1.43776    -28.179005
   1.49065    -28.177721
   1.54353    -28.175742
   1.59642    -28.173072
   1.64930    -28.169718
   1.70219    -28.165714
   1.75507    -28.160802
   1.80796    -28.155375
   1.86084    -28.149265
   1.91373    -28.142547
   1.96661    -28.135095
   2.01950    -28.127180
   2.07238    -28.118736
   2.07238    -28.118736
   2.13782    -28.118648
   2.20327    -28.118404
   2.26871    -28.117989
   2.33415    -28.117520
   2.39959    -28.117023
   2.46503    -28.116565
   2.46503    -28.116565
   2.51858    -28.116394
   2.57212    -28.116403
   2.62566    -28.116761
   2.67921    -28.117639
   2.73275    -28.119253
   2.78629    -28.121859
   2.83984    -28.125672
   2.89338    -28.130707
   2.94692    -28.136468
   3.00047    -28.142331
   3.05401    -28.148157
   3.10755    -28.153636
   3.16110    -28.158391
   3.21464    -28.162307
   3.26818    -28.165461
   3.32173    -28.167776
   3.37527    -28.169380
   3.42881    -28.170203
   3.48236    -28.170637
   3.53590    -28.170731
   3.58944    -28.170673
   3.64299    -28.170476
 
# Band-Index    4
   3.64299    -28.133741
   3.58944    -28.133204
   3.53590    -28.131662
   3.48236    -28.129301
   3.42881    -28.126367
   3.37527    -28.123116
   3.32173    -28.119635
   3.26818    -28.116176
   3.21464    -28.112805
   3.16110    -28.109623
   3.10755    -28.106545
   3.05401    -28.103509
   3.00047    -28.100479
   2.94692    -28.097068
   2.89338    -28.092887
   2.83984    -28.087511
   2.78629    -28.080577
   2.73275    -28.072186
   2.67921    -28.062475
   2.62566    -28.051884
   2.57212    -28.040687
   2.51858    -28.045431
   2.46503    -28.058050
   2.46503    -28.058051
   2.39959    -28.073076
   2.33415    -28.087015
   2.26871    -28.099406
   2.20327    -28.109524
   2.13782    -28.116324
   2.07238    -28.118731
   2.07238    -28.118731
   2.01950    -28.109799
   1.96661    -28.100474
   1.91373    -28.090768
   1.86084    -28.080648
   1.80796    -28.070274
   1.75507    -28.068191
   1.70219    -28.075892
   1.64930    -28.083166
   1.59642    -28.090022
   1.54353    -28.096577
   1.49065    -28.102705
   1.43776    -28.108372
   1.38488    -28.113539
   1.33199    -28.118100
   1.27911    -28.122183
   1.22622    -28.125664
   1.17334    -28.128526
   1.12045    -28.130798
   1.06757    -28.132430
   1.01468    -28.133413
   0.96180    -28.133741
   0.96180    -28.133741
   0.90836    -28.133007
   0.85493    -28.130956
   0.80150    -28.127930
   0.74806    -28.124313
   0.69463    -28.120375
   0.64120    -28.116359
   0.58776    -28.112391
   0.53433    -28.108633
   0.48090    -28.105186
   0.42746    -28.102106
   0.37403    -28.099439
   0.32060    -28.097136
   0.26717    -28.095355
   0.21373    -28.093962
   0.16030    -28.092897
   0.10687    -28.092173
   0.05343    -28.091868
   0.00000    -28.091740
 
# Band-Index    5
   0.00000    -28.091740
   0.05343    -28.091868
   0.10687    -28.092173
   0.16030    -28.092897
   0.21373    -28.093961
   0.26717    -28.095355
   0.32060    -28.097136
   0.37403    -28.099439
   0.42746    -28.102106
   0.48090    -28.105186
   0.53433    -28.108633
   0.58776    -28.112391
   0.64120    -28.116359
   0.69463    -28.120375
   0.74806    -28.124313
   0.80150    -28.127930
   0.85493    -28.130956
   0.90836    -28.133007
   0.96180    -28.133741
   0.96180    -28.133741
   1.01468    -28.132624
   1.06757    -28.129470
   1.12045    -28.124707
   1.17334    -28.118800
   1.22622    -28.111982
   1.27911    -28.104301
   1.33199    -28.096139
   1.38488    -28.087545
   1.43776    -28.078501
   1.49065    -28.069125
   1.54353    -28.059482
   1.59642    -28.049637
   1.64930    -28.039608
   1.70219    -28.049005
   1.75507    -28.059682
   1.80796    -28.060358
   1.86084    -28.052315
   1.91373    -28.044139
   1.96661    -28.035816
   2.01950    -28.027427
   2.07238    -28.019019
   2.07238    -28.019019
   2.13782    -28.019354
   2.20327    -28.020351
   2.26871    -28.021975
   2.33415    -28.024239
   2.39959    -28.027146
   2.46503    -28.030526
   2.46503    -28.030526
   2.51858    -28.033840
   2.57212    -28.037453
   2.62566    -28.041394
   2.67921    -28.045639
   2.73275    -28.050217
   2.78629    -28.055074
   2.83984    -28.059993
   2.89338    -28.065249
   2.94692    -28.070721
   3.00047    -28.076280
   3.05401    -28.081979
   3.10755    -28.087844
   3.16110    -28.093703
   3.21464    -28.099505
   3.26818    -28.105328
   3.32173    -28.111008
   3.37527    -28.116556
   3.42881    -28.121696
   3.48236    -28.126352
   3.53590    -28.130193
   3.58944    -28.132802
   3.64299    -28.133741
 
# Band-Index    6
   3.64299    -27.925317
   3.58944    -27.926712
   3.53590    -27.930091
   3.48236    -27.934407
   3.42881    -27.939164
   3.37527    -27.944184
   3.32173    -27.949248
   3.26818    -27.954361
   3.21464    -27.959473
   3.16110    -27.964550
   3.10755    -27.969493
   3.05401    -27.974312
   3.00047    -27.978974
   2.94692    -27.983580
   2.89338    -27.987817
   2.83984    -27.991809
   2.78629    -27.995545
   2.73275    -27.999070
   2.67921    -28.007744
   2.62566    -28.020051
   2.57212    -28.032693
   2.51858    -28.029169
   2.46503    -28.017630
   2.46503    -28.017630
   2.39959    -28.014291
   2.33415    -28.016005
   2.26871    -28.017349
   2.20327    -28.018184
   2.13782    -28.018833
   2.07238    -28.019018
   2.07238    -28.019018
   2.01950    -28.010637
   1.96661    -28.002335
   1.91373    -27.994149
   1.86084    -27.999305
   1.80796    -28.009310
   1.75507    -28.019379
   1.70219    -28.029674
   1.64930    -28.038155
   1.59642    -28.027226
   1.54353    -28.016399
   1.49065    -28.005706
   1.43776    -27.995192
   1.38488    -27.984860
   1.33199    -27.974888
   1.27911    -27.965342
   1.22622    -27.956310
   1.17334    -27.947771
   1.12045    -27.939936
   1.06757    -27.933029
   1.01468    -27.927626
   0.96180    -27.925317
   0.96180    -27.925317
   0.90836    -27.926156
   0.85493    -27.928307
   0.80150    -27.931163
   0.74806    -27.934358
   0.69463    -27.937598
   0.64120    -27.940798
   0.58776    -27.943772
   0.53433    -27.946483
   0.48090    -27.948912
   0.42746    -27.950995
   0.37403    -27.952695
   0.32060    -27.954000
   0.26717    -27.955128
   0.21373    -27.955852
   0.16030    -27.956378
   0.10687    -27.956577
   0.05343    -27.956748
   0.00000    -27.956796
 
# Band-Index    7
   0.00000    -27.956796
   0.05343    -27.956747
   0.10687    -27.956577
   0.16030    -27.956378
   0.21373    -27.955852
   0.26717    -27.955128
   0.32060    -27.954000
   0.37403    -27.952695
   0.42746    -27.950995
   0.48090    -27.948912
   0.53433    -27.946483
   0.58776    -27.943772
   0.64120    -27.940798
   0.69463    -27.937598
   0.74806    -27.934358
   0.80150    -27.931163
   0.85493    -27.928307
   0.90836    -27.926156
   0.96180    -27.925316
   0.96180    -27.925316
   1.01468    -27.924979
   1.06757    -27.923973
   1.12045    -27.922329
   1.17334    -27.920131
   1.22622    -27.917486
   1.27911    -27.919539
   1.33199    -27.923325
   1.38488    -27.927651
   1.43776    -27.932476
   1.49065    -27.937784
   1.54353    -27.943551
   1.59642    -27.949775
   1.64930    -27.956441
   1.70219    -27.963402
   1.75507    -27.970577
   1.80796    -27.978273
   1.86084    -27.986095
   1.91373    -27.989443
   1.96661    -27.979732
   2.01950    -27.970312
   2.07238    -27.961204
   2.07238    -27.961204
   2.13782    -27.963427
   2.20327    -27.969720
   2.26871    -27.979136
   2.33415    -27.990756
   2.39959    -28.003834
   2.46503    -28.012110
   2.46503    -28.012110
   2.51858    -28.010121
   2.57212    -28.007785
   2.62566    -28.005161
   2.67921    -28.002269
   2.73275    -27.995863
   2.78629    -27.984858
   2.83984    -27.975150
   2.89338    -27.967892
   2.94692    -27.963468
   3.00047    -27.960458
   3.05401    -27.957779
   3.10755    -27.955086
   3.16110    -27.952126
   3.21464    -27.948810
   3.26818    -27.945356
   3.32173    -27.941688
   3.37527    -27.937996
   3.42881    -27.934310
   3.48236    -27.930931
   3.53590    -27.928061
   3.58944    -27.926053
   3.64299    -27.925316
 
# Band-Index    8
   3.64299    -27.925313
   3.58944    -27.924968
   3.53590    -27.923925
   3.48236    -27.922192
   3.42881    -27.919827
   3.37527    -27.916904
   3.32173    -27.913212
   3.26818    -27.913071
   3.21464    -27.916616
   3.16110    -27.921237
   3.10755    -27.926706
   3.05401    -27.933088
   3.00047    -27.940175
   2.94692    -27.947572
   2.89338    -27.953995
   2.83984    -27.958085
   2.78629    -27.960144
   2.73275    -27.961374
   2.67921    -27.961997
   2.62566    -27.962316
   2.57212    -27.962427
   2.51858    -27.962398
   2.46503    -27.962253
   2.46503    -27.962252
   2.39959    -27.962054
   2.33415    -27.961811
   2.26871    -27.961553
   2.20327    -27.961369
   2.13782    -27.961244
   2.07238    -27.961200
   2.07238    -27.961200
   2.01950    -27.952453
   1.96661    -27.944191
   1.91373    -27.936346
   1.86084    -27.929006
   1.80796    -27.922242
   1.75507    -27.916093
   1.70219    -27.910665
   1.64930    -27.905820
   1.59642    -27.901771
   1.54353    -27.898442
   1.49065    -27.899045
   1.43776    -27.903098
   1.38488    -27.907072
   1.33199    -27.910794
   1.27911    -27.914330
   1.22622    -27.917484
   1.17334    -27.920129
   1.12045    -27.922327
   1.06757    -27.923971
   1.01468    -27.924977
   0.96180    -27.925313
   0.96180    -27.925313
   0.90836    -27.925456
   0.85493    -27.925872
   0.80150    -27.926550
   0.74806    -27.927602
   0.69463    -27.928754
   0.64120    -27.930140
   0.58776    -27.931564
   0.53433    -27.933143
   0.48090    -27.934765
   0.42746    -27.936457
   0.37403    -27.938070
   0.32060    -27.939591
   0.26717    -27.941006
   0.21373    -27.942207
   0.16030    -27.943206
   0.10687    -27.943913
   0.05343    -27.944366
   0.00000    -27.944518
 
# Band-Index    9
   0.00000    -27.884903
   0.05343    -27.884955
   0.10687    -27.885029
   0.16030    -27.885317
   0.21373    -27.885781
   0.26717    -27.886366
   0.32060    -27.887069
   0.37403    -27.888071
   0.42746    -27.889268
   0.48090    -27.890682
   0.53433    -27.892337
   0.58776    -27.894321
   0.64120    -27.896439
   0.69463    -27.898765
   0.74806    -27.901243
   0.80150    -27.903782
   0.85493    -27.906175
   0.90836    -27.908032
   0.96180    -27.908712
   0.96180    -27.908712
   1.01468    -27.909092
   1.06757    -27.909999
   1.12045    -27.911502
   1.17334    -27.913593
   1.22622    -27.916301
   1.27911    -27.914328
   1.33199    -27.910792
   1.38488    -27.907070
   1.43776    -27.903096
   1.49065    -27.899043
   1.54353    -27.895005
   1.59642    -27.891096
   1.64930    -27.887319
   1.70219    -27.883909
   1.75507    -27.880619
   1.80796    -27.877877
   1.86084    -27.875526
   1.91373    -27.873675
   1.96661    -27.872277
   2.01950    -27.871427
   2.07238    -27.871149
   2.07238    -27.871149
   2.13782    -27.871110
   2.20327    -27.870998
   2.26871    -27.870809
   2.33415    -27.870647
   2.39959    -27.870443
   2.46503    -27.870216
   2.46503    -27.870217
   2.51858    -27.870138
   2.57212    -27.870143
   2.62566    -27.870254
   2.67921    -27.870499
   2.73275    -27.870909
   2.78629    -27.871502
   2.83984    -27.872293
   2.89338    -27.873316
   2.94692    -27.877712
   3.00047    -27.882954
   3.05401    -27.888432
   3.10755    -27.893955
   3.16110    -27.899301
   3.21464    -27.904321
   3.26818    -27.909002
   3.32173    -27.910514
   3.37527    -27.908870
   3.42881    -27.907960
   3.48236    -27.907783
   3.53590    -27.908094
   3.58944    -27.908548
   3.64299    -27.908712
 
# Band-Index   10
   3.64299    -27.908712
   3.58944    -27.907564
   3.53590    -27.904692
   3.48236    -27.901204
   3.42881    -27.897590
   3.37527    -27.894073
   3.32173    -27.890692
   3.26818    -27.887546
   3.21464    -27.884660
   3.16110    -27.882154
   3.10755    -27.879820
   3.05401    -27.877754
   3.00047    -27.876030
   2.94692    -27.874576
   2.89338    -27.872576
   2.83984    -27.867931
   2.78629    -27.863857
   2.73275    -27.860438
   2.67921    -27.857782
   2.62566    -27.855905
   2.57212    -27.854889
   2.51858    -27.854753
   2.46503    -27.855443
   2.46503    -27.855443
   2.39959    -27.857470
   2.33415    -27.860383
   2.26871    -27.863922
   2.20327    -27.867424
   2.13782    -27.870124
   2.07238    -27.871147
   2.07238    -27.871147
   2.01950    -27.871425
   1.96661    -27.872275
   1.91373    -27.873673
   1.86084    -27.875524
   1.80796    -27.877875
   1.75507    -27.880617
   1.70219    -27.883907
   1.64930    -27.887317
   1.59642    -27.891094
   1.54353    -27.895003
   1.49065    -27.895926
   1.43776    -27.894210
   1.38488    -27.893206
   1.33199    -27.893065
   1.27911    -27.893790
   1.22622    -27.895406
   1.17334    -27.897659
   1.12045    -27.900534
   1.06757    -27.903918
   1.01468    -27.907193
   0.96180    -27.908712
   0.96180    -27.908712
   0.90836    -27.908032
   0.85493    -27.906175
   0.80150    -27.903782
   0.74806    -27.901243
   0.69463    -27.898765
   0.64120    -27.896439
   0.58776    -27.894321
   0.53433    -27.892337
   0.48090    -27.890682
   0.42746    -27.889267
   0.37403    -27.888070
   0.32060    -27.887068
   0.26717    -27.886366
   0.21373    -27.885781
   0.16030    -27.885316
   0.10687    -27.885029
   0.05343    -27.884954
   0.00000    -27.884902
 
# Band-Index   11
   0.00000    -11.934456
   0.05343    -11.973723
   0.10687    -12.083429
   0.16030    -12.244707
   0.21373    -12.437319
   0.26717    -12.644911
   0.32060    -12.855893
   0.37403    -13.062492
   0.42746    -13.259431
   0.48090    -13.443181
   0.53433    -13.611362
   0.58776    -13.762260
   0.64120    -13.894689
   0.69463    -14.007842
   0.74806    -14.101072
   0.80150    -14.173953
   0.85493    -14.226230
   0.90836    -14.257661
   0.96180    -14.268131
   0.96180    -14.268131
   1.01468    -14.257874
   1.06757    -14.227053
   1.12045    -14.175701
   1.17334    -14.103906
   1.22622    -14.011704
   1.27911    -13.899176
   1.33199    -13.766476
   1.38488    -13.613710
   1.43776    -13.441037
   1.49065    -13.248681
   1.54353    -13.036851
   1.59642    -12.805800
   1.64930    -12.555856
   1.70219    -12.287352
   1.75507    -12.000651
   1.80796    -11.696221
   1.86084    -11.374526
   1.91373    -11.036090
   1.96661    -10.681519
   2.01950    -10.311453
   2.07238     -9.926571
   2.07238     -9.926571
   2.13782     -9.937644
   2.20327     -9.972392
   2.26871    -10.035047
   2.33415    -10.131644
   2.39959    -10.268316
   2.46503    -10.448885
   2.46503    -10.448885
   2.51858    -10.629117
   2.57212    -10.835793
   2.62566    -11.064296
   2.67921    -11.308945
   2.73275    -11.563778
   2.78629    -11.823101
   2.83984    -12.081900
   2.89338    -12.335938
   2.94692    -12.581683
   3.00047    -12.816309
   3.05401    -13.037603
   3.10755    -13.243723
   3.16110    -13.433248
   3.21464    -13.605080
   3.26818    -13.758306
   3.32173    -13.892237
   3.37527    -14.006364
   3.42881    -14.100227
   3.48236    -14.173518
   3.53590    -14.226049
   3.58944    -14.257617
   3.64299    -14.268131
 
# Band-Index   12
   3.64299     -0.197875
   3.58944     -0.480443
   3.53590     -1.000076
   3.48236     -1.567354
   3.42881     -2.143104
   3.37527     -2.713643
   3.32173     -3.272202
