#K-Path(1/A) Energy-Level(eV)
# NKPTS & NBANDS:  94  18
# Band-Index    1
   0.00000    -28.136290
   0.05468    -28.136755
   0.10937    -28.137961
   0.16405    -28.139512
   0.21874    -28.141049
   0.27342    -28.142320
   0.32810    -28.143577
   0.38279    -28.145799
   0.43747    -28.148190
   0.49215    -28.150646
   0.54684    -28.153064
   0.60152    -28.155493
   0.65621    -28.157780
   0.71089    -28.159908
   0.76557    -28.161834
   0.82026    -28.163493
   0.87494    -28.164904
   0.92962    -28.166024
   0.98431    -28.166857
   1.03899    -28.167350
   1.09368    -28.167510
   1.09368    -28.167510
   1.15812    -28.168453
   1.22257    -28.170932
   1.28701    -28.174154
   1.35146    -28.177366
   1.41590    -28.180080
   1.48035    -28.181991
   1.48035    -28.181991
   1.53308    -28.182824
   1.58581    -28.182923
   1.63853    -28.182344
   1.69126    -28.181112
   1.74399    -28.179240
   1.79672    -28.176862
   1.84945    -28.174000
   1.90217    -28.170766
   1.95490    -28.167276
   2.00763    -28.163647
   2.06036    -28.161289
   2.11309    -28.159416
   2.16581    -28.157303
   2.21854    -28.154942
   2.27127    -28.152349
   2.32400    -28.149574
   2.37673    -28.146678
   2.42946    -28.143779
   2.48218    -28.141008
   2.53491    -28.138603
   2.58764    -28.136909
   2.64037    -28.136290
   2.64037    -28.136290
   2.69608    -28.136828
   2.75180    -28.138300
   2.80751    -28.140377
   2.86323    -28.142736
   2.91894    -28.145172
   2.97466    -28.147518
   3.03037    -28.149695
   3.08609    -28.151606
   3.14180    -28.153303
   3.19752    -28.154721
   3.25323    -28.155880
   3.30895    -28.156802
   3.36466    -28.157495
   3.42037    -28.157997
   3.47609    -28.158362
   3.53180    -28.158583
   3.58752    -28.158649
   3.58752    -28.158649
   3.64276    -28.159606
   3.69800    -28.162098
   3.75324    -28.165384
   3.80848    -28.168862
   3.86371    -28.172133
   3.91895    -28.175021
   3.97419    -28.177349
   4.02943    -28.179131
   4.08467    -28.180332
   4.13991    -28.181005
   4.19515    -28.181166
   4.25039    -28.180874
   4.30563    -28.180204
   4.36087    -28.179195
   4.36087    -28.179195
   4.42162    -28.178891
   4.48238    -28.178036
   4.54314    -28.176688
   4.60390    -28.174932
   4.66466    -28.172948
   4.72542    -28.170943
   4.78618    -28.169175
   4.84694    -28.167954
   4.90770    -28.167510
 
# Band-Index    2
   4.90770    -28.167508
   4.84694    -28.167952
   4.78618    -28.169174
   4.72542    -28.170941
   4.66466    -28.172945
   4.60390    -28.174930
   4.54314    -28.176686
   4.48238    -28.178033
   4.42162    -28.178889
   4.36087    -28.179192
   4.36087    -28.179192
   4.30563    -28.177877
   4.25039    -28.176351
   4.19515    -28.174655
   4.13991    -28.172820
   4.08467    -28.170904
   4.02943    -28.168956
   3.97419    -28.167006
   3.91895    -28.165122
   3.86371    -28.163347
   3.80848    -28.161783
   3.75324    -28.160451
   3.69800    -28.159476
   3.64276    -28.158851
   3.58752    -28.158648
   3.58752    -28.158648
   3.53180    -28.158583
   3.47609    -28.158362
   3.42037    -28.157996
   3.36466    -28.157495
   3.30895    -28.156801
   3.25323    -28.155879
   3.19752    -28.154720
   3.14180    -28.153303
   3.08609    -28.151606
   3.03037    -28.149695
   2.97466    -28.147518
   2.91894    -28.145171
   2.86323    -28.142736
   2.80751    -28.140377
   2.75180    -28.138299
   2.69608    -28.136828
   2.64037    -28.136290
   2.64037    -28.136290
   2.58764    -28.136500
   2.53491    -28.137136
   2.48218    -28.138170
   2.42946    -28.139648
   2.37673    -28.141540
   2.32400    -28.143811
   2.27127    -28.146487
   2.21854    -28.149498
   2.16581    -28.152784
   2.11309    -28.156288
   2.06036    -28.159929
   2.00763    -28.162914
   1.95490    -28.164286
   1.90217    -28.165401
   1.84945    -28.166333
   1.79672    -28.167038
   1.74399    -28.167554
   1.69126    -28.167912
   1.63853    -28.168096
   1.58581    -28.168200
   1.53308    -28.168234
   1.48035    -28.168182
   1.48035    -28.168181
   1.41590    -28.168039
   1.35146    -28.167895
   1.28701    -28.167751
   1.22257    -28.167626
   1.15812    -28.167544
   1.09368    -28.167508
   1.09368    -28.167508
   1.03899    -28.167348
   0.98431    -28.166855
   0.92962    -28.166022
   0.87494    -28.164902
   0.82026    -28.163491
   0.76557    -28.161832
   0.71089    -28.159906
   0.65621    -28.157779
   0.60152    -28.155491
   0.54684    -28.153063
   0.49215    -28.150644
   0.43747    -28.148188
   0.38279    -28.145798
   0.32810    -28.143575
   0.27342    -28.141512
   0.21874    -28.139717
   0.16405    -28.138260
   0.10937    -28.137187
   0.05468    -28.136515
   0.00000    -28.136290
 
# Band-Index    3
   0.00000    -28.136287
   0.05468    -28.136513
   0.10937    -28.137185
   0.16405    -28.138258
   0.21874    -28.139715
   0.27342    -28.141511
   0.32810    -28.143174
   0.38279    -28.143494
   0.43747    -28.143203
   0.49215    -28.142262
   0.54684    -28.140669
   0.60152    -28.138412
   0.65621    -28.135454
   0.71089    -28.131843
   0.76557    -28.127546
   0.82026    -28.122582
   0.87494    -28.116982
   0.92962    -28.110765
   0.98431    -28.103975
   1.03899    -28.096616
   1.09368    -28.088723
   1.09368    -28.088723
   1.15812    -28.088654
   1.22257    -28.088480
   1.28701    -28.088168
   1.35146    -28.087763
   1.41590    -28.087372
   1.48035    -28.087077
   1.48035    -28.087077
   1.53308    -28.086953
   1.58581    -28.087024
   1.63853    -28.087429
   1.69126    -28.088322
   1.74399    -28.089866
   1.79672    -28.092336
   1.84945    -28.095844
   1.90217    -28.100309
   1.95490    -28.105421
   2.00763    -28.110764
   2.06036    -28.115929
   2.11309    -28.120709
   2.16581    -28.124913
   2.21854    -28.128460
   2.27127    -28.131275
   2.32400    -28.133372
   2.37673    -28.134826
   2.42946    -28.135718
   2.48218    -28.136181
   2.53491    -28.136317
   2.58764    -28.136307
   2.64037    -28.136287
   2.64037    -28.136287
   2.69608    -28.136157
   2.75180    -28.135773
   2.80751    -28.135139
   2.86323    -28.134271
   2.91894    -28.133229
   2.97466    -28.132027
   3.03037    -28.130729
   3.08609    -28.129334
   3.14180    -28.127910
   3.19752    -28.126501
   3.25323    -28.125153
   3.30895    -28.123875
   3.36466    -28.122761
   3.42037    -28.121875
   3.47609    -28.121212
   3.53180    -28.120808
   3.58752    -28.120671
   3.58752    -28.120671
   3.64276    -28.119488
   3.69800    -28.116365
   3.75324    -28.112086
   3.80848    -28.107346
   3.86371    -28.102505
   3.91895    -28.097730
   3.97419    -28.092980
   4.02943    -28.088186
   4.08467    -28.083189
   4.13991    -28.077896
   4.19515    -28.072208
   4.25039    -28.066027
   4.30563    -28.059341
   4.36087    -28.052141
   4.36087    -28.052141
   4.42162    -28.053625
   4.48238    -28.057626
   4.54314    -28.063135
   4.60390    -28.069236
   4.66466    -28.075270
   4.72542    -28.080681
   4.78618    -28.084966
   4.84694    -28.087765
   4.90770    -28.088723
 
# Band-Index    4
   4.90770    -28.088719
   4.84694    -28.087761
   4.78618    -28.084961
   4.72542    -28.080677
   4.66466    -28.075266
   4.60390    -28.069233
   4.54314    -28.063131
   4.48238    -28.057623
   4.42162    -28.053622
   4.36087    -28.052138
   4.36087    -28.052138
   4.30563    -28.044463
   4.25039    -28.036650
   4.19515    -28.030979
   4.13991    -28.033216
   4.08467    -28.037992
   4.02943    -28.042886
   3.97419    -28.047565
   3.91895    -28.051877
   3.86371    -28.055692
   3.80848    -28.059002
   3.75324    -28.061678
   3.69800    -28.063660
   3.64276    -28.064831
   3.58752    -28.065243
   3.58752    -28.065243
   3.53180    -28.065378
   3.47609    -28.065806
   3.42037    -28.066516
   3.36466    -28.067571
   3.30895    -28.069030
   3.25323    -28.070887
   3.19752    -28.073160
   3.14180    -28.075856
   3.08609    -28.078949
   3.03037    -28.082335
   2.97466    -28.085969
   2.91894    -28.089710
   2.86323    -28.093429
   2.80751    -28.096871
   2.75180    -28.099798
   2.69608    -28.101762
   2.64037    -28.102469
   2.64037    -28.102469
   2.58764    -28.102004
   2.53491    -28.100668
   2.48218    -28.098599
   2.42946    -28.096022
   2.37673    -28.093133
   2.32400    -28.090074
   2.27127    -28.087007
   2.21854    -28.084026
   2.16581    -28.081164
   2.11309    -28.078419
   2.06036    -28.075759
   2.00763    -28.073011
   1.95490    -28.069962
   1.90217    -28.066278
   1.84945    -28.061577
   1.79672    -28.055570
   1.74399    -28.048224
   1.69126    -28.039771
   1.63853    -28.030460
   1.58581    -28.020610
   1.53308    -28.024340
   1.48035    -28.035447
   1.48035    -28.035447
   1.41590    -28.048618
   1.35146    -28.060962
   1.28701    -28.071891
   1.22257    -28.080739
   1.15812    -28.086632
   1.09368    -28.088719
   1.09368    -28.088719
   1.03899    -28.080424
   0.98431    -28.071684
   0.92962    -28.062531
   0.87494    -28.053123
   0.82026    -28.043460
   0.76557    -28.046916
   0.71089    -28.053806
   0.65621    -28.060389
   0.60152    -28.066608
   0.54684    -28.072436
   0.49215    -28.077853
   0.43747    -28.082801
   0.38279    -28.087328
   0.32810    -28.091252
   0.27342    -28.094641
   0.21874    -28.097429
   0.16405    -28.099625
   0.10937    -28.101201
   0.05468    -28.102151
   0.00000    -28.102469
 
# Band-Index    5
   0.00000    -28.102469
   0.05468    -28.101416
   0.10937    -28.098405
   0.16405    -28.093919
   0.21874    -28.088314
   0.27342    -28.081854
   0.32810    -28.074723
   0.38279    -28.067063
   0.43747    -28.058912
   0.49215    -28.050415
   0.54684    -28.041599
   0.60152    -28.032564
   0.65621    -28.023349
   0.71089    -28.023635
   0.76557    -28.033612
   0.82026    -28.039758
   0.87494    -28.032380
   0.92962    -28.024851
   0.98431    -28.017245
   1.03899    -28.009514
   1.09368    -28.001769
   1.09368    -28.001769
   1.15812    -28.002055
   1.22257    -28.002935
   1.28701    -28.004384
   1.35146    -28.006387
   1.41590    -28.008915
   1.48035    -28.011993
   1.48035    -28.011993
   1.53308    -28.014879
   1.58581    -28.018032
   1.63853    -28.021492
   1.69126    -28.025235
   1.74399    -28.029188
   1.79672    -28.033421
   1.84945    -28.037840
   1.90217    -28.042446
   1.95490    -28.047240
   2.00763    -28.052164
   2.06036    -28.057185
   2.11309    -28.062285
   2.16581    -28.067421
   2.21854    -28.072574
   2.27127    -28.077675
   2.32400    -28.082656
   2.37673    -28.087464
   2.42946    -28.091977
   2.48218    -28.096066
   2.53491    -28.099420
   2.58764    -28.101664
   2.64037    -28.102469
   2.64037    -28.102469
   2.69608    -28.101762
   2.75180    -28.099798
   2.80751    -28.096871
   2.86323    -28.093429
   2.91894    -28.089710
   2.97466    -28.085969
   3.03037    -28.082335
   3.08609    -28.078948
   3.14180    -28.075856
   3.19752    -28.073160
   3.25323    -28.070887
   3.30895    -28.069029
   3.36466    -28.067571
   3.42037    -28.066515
   3.47609    -28.065806
   3.53180    -28.065378
   3.58752    -28.065243
   3.58752    -28.065243
   3.64276    -28.064630
   3.69800    -28.062810
   3.75324    -28.059702
   3.80848    -28.055347
   3.86371    -28.049771
   3.91895    -28.043174
   3.97419    -28.035752
   4.02943    -28.027802
   4.08467    -28.019606
   4.13991    -28.015874
   4.19515    -28.021791
   4.25039    -28.019222
   4.30563    -28.013950
   4.36087    -28.008316
   4.36087    -28.008316
   4.42162    -28.007700
   4.48238    -28.006304
   4.54314    -28.004838
   4.60390    -28.003670
   4.66466    -28.002871
   4.72542    -28.002349
   4.78618    -28.002007
   4.84694    -28.001830
   4.90770    -28.001769
 
# Band-Index    6
   4.90770    -28.001765
   4.84694    -28.001825
   4.78618    -28.002003
   4.72542    -28.002345
   4.66466    -28.002867
   4.60390    -28.003666
   4.54314    -28.004833
   4.48238    -28.006300
   4.42162    -28.007696
   4.36087    -28.008312
   4.36087    -28.008312
   4.30563    -28.002725
   4.25039    -27.999019
   4.19515    -28.003726
   4.13991    -28.011441
   4.08467    -28.006936
   4.02943    -27.997457
   3.97419    -27.987843
   3.91895    -27.978389
   3.86371    -27.969335
   3.80848    -27.961164
   3.75324    -27.954427
   3.69800    -27.949944
   3.64276    -27.947741
   3.58752    -27.947127
   3.58752    -27.947127
   3.53180    -27.947067
   3.47609    -27.946858
   3.42037    -27.946498
   3.36466    -27.945941
   3.30895    -27.945141
   3.25323    -27.944030
   3.19752    -27.942558
   3.14180    -27.940721
   3.08609    -27.938523
   3.03037    -27.936021
   2.97466    -27.933216
   2.91894    -27.930206
   2.86323    -27.927089
   2.80751    -27.923983
   2.75180    -27.921085
   2.69608    -27.918791
   2.64037    -27.917848
   2.64037    -27.917848
   2.58764    -27.919222
   2.53491    -27.922410
   2.48218    -27.926360
   2.42946    -27.930643
   2.37673    -27.935083
   2.32400    -27.939625
   2.27127    -27.944180
   2.21854    -27.948727
   2.16581    -27.953182
   2.11309    -27.957566
   2.06036    -27.961828
   2.00763    -27.965976
   1.95490    -27.969931
   1.90217    -27.973712
   1.84945    -27.977291
   1.79672    -27.980631
   1.74399    -27.983722
   1.69126    -27.991038
   1.63853    -28.001940
   1.58581    -28.013098
   1.53308    -28.010488
   1.48035    -28.000294
   1.48035    -28.000294
   1.41590    -27.997441
   1.35146    -27.999031
   1.28701    -28.000227
   1.22257    -28.001081
   1.15812    -28.001591
   1.09368    -28.001765
   1.09368    -28.001765
   1.03899    -27.994050
   0.98431    -27.986413
   0.92962    -27.978881
   0.87494    -27.986008
   0.82026    -27.995307
   0.76557    -28.004680
   0.71089    -28.014049
   0.65621    -28.013589
   0.60152    -28.003575
   0.54684    -27.993588
   0.49215    -27.983798
   0.43747    -27.974232
   0.38279    -27.964946
   0.32810    -27.956016
   0.27342    -27.947509
   0.21874    -27.939507
   0.16405    -27.932119
   0.10937    -27.925552
   0.05468    -27.920246
   0.00000    -27.917848
 
# Band-Index    7
   0.00000    -27.917848
   0.05468    -27.917522
   0.10937    -27.916547
   0.16405    -27.914939
   0.21874    -27.912782
   0.27342    -27.912355
   0.32810    -27.915466
   0.38279    -27.919119
   0.43747    -27.923287
   0.49215    -27.927938
   0.54684    -27.933023
   0.60152    -27.938563
   0.65621    -27.944518
   0.71089    -27.950818
   0.76557    -27.957444
   0.82026    -27.964351
   0.87494    -27.971513
   0.92962    -27.976833
   0.98431    -27.967856
   1.03899    -27.959067
   1.09368    -27.950583
   1.09368    -27.950583
   1.15812    -27.952560
   1.22257    -27.958113
   1.28701    -27.966396
   1.35146    -27.976610
   1.41590    -27.988085
   1.48035    -27.995546
   1.48035    -27.995546
   1.53308    -27.993708
   1.58581    -27.991564
   1.63853    -27.989207
   1.69126    -27.986602
   1.74399    -27.980526
   1.79672    -27.970723
   1.84945    -27.962025
   1.90217    -27.955475
   1.95490    -27.951639
   2.00763    -27.949131
   2.06036    -27.946846
   2.11309    -27.944460
   2.16581    -27.941844
   2.21854    -27.938993
   2.27127    -27.935904
   2.32400    -27.932658
   2.37673    -27.929354
   2.42946    -27.926088
   2.48218    -27.923053
   2.53491    -27.920435
   2.58764    -27.918552
   2.64037    -27.917848
   2.64037    -27.917848
   2.69608    -27.918791
   2.75180    -27.921085
   2.80751    -27.923983
   2.86323    -27.927089
   2.91894    -27.930206
   2.97466    -27.933216
   3.03037    -27.936021
   3.08609    -27.938523
   3.14180    -27.940721
   3.19752    -27.942558
   3.25323    -27.944030
   3.30895    -27.945141
   3.36466    -27.945941
   3.42037    -27.946498
   3.47609    -27.946858
   3.53180    -27.947067
   3.58752    -27.947127
   3.58752    -27.947127
   3.64276    -27.947628
   3.69800    -27.949109
   3.75324    -27.951472
   3.80848    -27.954660
   3.86371    -27.958494
   3.91895    -27.962873
   3.97419    -27.967656
   4.02943    -27.972802
   4.08467    -27.978188
   4.13991    -27.983712
   4.19515    -27.989098
   4.25039    -27.991881
   4.30563    -27.986739
   4.36087    -27.980258
   4.36087    -27.980258
   4.42162    -27.979352
   4.48238    -27.976780
   4.54314    -27.972772
   4.60390    -27.967884
   4.66466    -27.962753
   4.72542    -27.957978
   4.78618    -27.954069
   4.84694    -27.951524
   4.90770    -27.950583
 
# Band-Index    8
   4.90770    -27.950580
   4.84694    -27.951521
   4.78618    -27.954066
   4.72542    -27.957974
   4.66466    -27.962750
   4.60390    -27.967881
   4.54314    -27.972769
   4.48238    -27.976777
   4.42162    -27.979350
   4.36087    -27.980256
   4.36087    -27.980256
   4.30563    -27.974108
   4.25039    -27.968540
   4.19515    -27.963579
   4.13991    -27.959237
   4.08467    -27.955482
   4.02943    -27.952280
   3.97419    -27.949541
   3.91895    -27.947220
   3.86371    -27.945181
   3.80848    -27.943254
   3.75324    -27.941113
   3.69800    -27.938472
   3.64276    -27.935909
   3.58752    -27.934836
   3.58752    -27.934836
   3.53180    -27.934684
   3.47609    -27.934236
   3.42037    -27.933517
   3.36466    -27.932544
   3.30895    -27.931311
   3.25323    -27.929953
   3.19752    -27.928517
   3.14180    -27.926973
   3.08609    -27.925419
   3.03037    -27.923886
   2.97466    -27.922378
   2.91894    -27.921068
   2.86323    -27.919943
   2.80751    -27.919034
   2.75180    -27.918386
   2.69608    -27.917986
   2.64037    -27.917845
   2.64037    -27.917845
   2.58764    -27.917543
   2.53491    -27.916631
   2.48218    -27.915079
   2.42946    -27.912972
   2.37673    -27.910313
   2.32400    -27.907131
   2.27127    -27.908357
   2.21854    -27.911483
   2.16581    -27.915467
   2.11309    -27.920321
   2.06036    -27.925985
   2.00763    -27.932313
   1.95490    -27.938892
   1.90217    -27.944652
   1.84945    -27.948136
   1.79672    -27.949859
   1.74399    -27.950780
   1.69126    -27.951308
   1.63853    -27.951566
   1.58581    -27.951654
   1.53308    -27.951647
   1.48035    -27.951543
   1.48035    -27.951543
   1.41590    -27.951338
   1.35146    -27.951136
   1.28701    -27.950955
   1.22257    -27.950795
   1.15812    -27.950689
   1.09368    -27.950580
   1.09368    -27.950580
   1.03899    -27.942530
   0.98431    -27.934895
   0.92962    -27.927660
   0.87494    -27.920982
   0.82026    -27.914858
   0.76557    -27.909350
   0.71089    -27.904486
   0.65621    -27.900298
   0.60152    -27.896840
   0.54684    -27.894092
   0.49215    -27.896629
   0.43747    -27.900273
   0.38279    -27.903831
   0.32810    -27.907155
   0.27342    -27.910171
   0.21874    -27.912780
   0.16405    -27.914937
   0.10937    -27.916546
   0.05468    -27.917520
   0.00000    -27.917845
 
# Band-Index    9
   0.00000    -27.905122
   0.05468    -27.905414
   0.10937    -27.906291
   0.16405    -27.907745
   0.21874    -27.909768
   0.27342    -27.910169
   0.32810    -27.907153
   0.38279    -27.903829
   0.43747    -27.900271
   0.49215    -27.896627
   0.54684    -27.892915
   0.60152    -27.889297
   0.65621    -27.885780
   0.71089    -27.882491
   0.76557    -27.879489
   0.82026    -27.876804
   0.87494    -27.874549
   0.92962    -27.872749
   0.98431    -27.871456
   1.03899    -27.870661
   1.09368    -27.870343
   1.09368    -27.870343
   1.15812    -27.870311
   1.22257    -27.870269
   1.28701    -27.870135
   1.35146    -27.869968
   1.41590    -27.869815
   1.48035    -27.869707
   1.48035    -27.869707
   1.53308    -27.869682
   1.58581    -27.869711
   1.63853    -27.869838
   1.69126    -27.870094
   1.74399    -27.870472
   1.79672    -27.871031
   1.84945    -27.871752
   1.90217    -27.872668
   1.95490    -27.876070
