#K-Path(1/A) Energy-Level(eV)
# NKPTS & NBANDS: 120  18
# Band-Index    1
   0.00000    -24.768252
   0.05845    -24.769150
   0.11690    -24.771053
   0.17536    -24.773372
   0.23381    -24.775569
   0.29226    -24.777327
   0.35071    -24.778465
   0.40916    -24.779927
   0.46762    -24.782706
   0.52607    -24.785518
   0.58452    -24.788293
   0.64297    -24.791062
   0.70142    -24.793473
   0.75987    -24.795792
   0.81833    -24.797818
   0.87678    -24.799513
   0.93523    -24.800860
   0.99368    -24.801812
   1.05213    -24.802392
   1.11059    -24.802593
   1.11059    -24.802593
   1.13125    -24.802712
   1.15192    -24.803066
   1.17258    -24.803638
   1.19325    -24.804436
   1.21392    -24.805366
   1.23458    -24.806421
   1.25525    -24.807481
   1.27591    -24.808706
   1.29658    -24.809964
   1.31724    -24.811228
   1.33791    -24.812535
   1.35858    -24.813742
   1.37924    -24.814897
   1.39991    -24.815976
   1.42057    -24.816983
   1.44124    -24.817881
   1.46191    -24.818677
   1.48257    -24.819328
   1.50324    -24.819911
   1.50324    -24.819911
   1.56524    -24.820947
   1.62723    -24.820889
   1.68923    -24.819758
   1.75123    -24.817694
   1.81323    -24.814724
   1.87522    -24.810992
   1.93722    -24.806806
   1.99922    -24.802171
   2.06122    -24.798479
   2.12321    -24.796320
   2.18521    -24.793745
   2.24721    -24.790736
   2.30921    -24.787361
   2.37120    -24.783659
   2.43320    -24.779768
   2.49520    -24.775806
   2.55720    -24.772161
   2.61919    -24.769398
   2.68119    -24.768252
   2.68119    -24.768252
   2.73181    -24.768906
   2.78243    -24.770413
   2.83305    -24.772546
   2.88368    -24.774991
   2.93430    -24.777560
   2.98492    -24.780033
   3.03554    -24.782306
   3.08616    -24.784404
   3.13678    -24.786255
   3.18740    -24.787916
   3.23802    -24.789283
   3.28864    -24.790376
   3.33926    -24.791240
   3.38988    -24.792027
   3.44050    -24.792582
   3.49113    -24.792938
   3.54175    -24.793174
   3.59237    -24.793269
   3.64299    -24.793314
   3.64299    -24.793314
   3.68432    -24.793928
   3.72565    -24.795716
   3.76698    -24.798146
   3.80831    -24.800962
   3.84965    -24.803890
   3.89098    -24.806677
   3.93231    -24.809279
   3.97364    -24.811656
   4.01497    -24.813725
   4.05631    -24.815491
   4.09764    -24.816832
   4.13897    -24.817881
   4.18030    -24.818580
   4.22163    -24.818891
   4.26296    -24.818958
   4.30430    -24.818773
   4.34563    -24.818279
   4.38696    -24.817617
   4.42829    -24.816765
   4.42829    -24.816765
   4.45752    -24.816687
   4.48674    -24.816394
   4.51597    -24.816012
   4.54519    -24.815505
   4.57442    -24.814839
   4.60365    -24.814044
   4.63287    -24.813128
   4.66210    -24.812121
   4.69132    -24.811095
   4.72055    -24.809951
   4.74978    -24.808727
   4.77900    -24.807556
   4.80823    -24.806438
   4.83745    -24.805382
   4.86668    -24.804484
   4.89591    -24.803673
   4.92513    -24.803084
   4.95436    -24.802717
   4.98358    -24.802593
 
# Band-Index    2
   4.98358    -24.802592
   4.95436    -24.802717
   4.92513    -24.803083
   4.89591    -24.803672
   4.86668    -24.804483
   4.83745    -24.805382
   4.80823    -24.806437
   4.77900    -24.807554
   4.74978    -24.808726
   4.72055    -24.809950
   4.69132    -24.811094
   4.66210    -24.812120
   4.63287    -24.813127
   4.60365    -24.814043
   4.57442    -24.814838
   4.54519    -24.815503
   4.51597    -24.816011
   4.48674    -24.816393
   4.45752    -24.816686
   4.42829    -24.816764
   4.42829    -24.816764
   4.38696    -24.815667
   4.34563    -24.814442
   4.30430    -24.813179
   4.26296    -24.811761
   4.22163    -24.810264
   4.18030    -24.808713
   4.13897    -24.807054
   4.09764    -24.805396
   4.05631    -24.803784
   4.01497    -24.802165
   3.97364    -24.800593
   3.93231    -24.799078
   3.89098    -24.797698
   3.84965    -24.796473
   3.80831    -24.795419
   3.76698    -24.794541
   3.72565    -24.793888
   3.68432    -24.793449
   3.64299    -24.793314
   3.64299    -24.793314
   3.59237    -24.793269
   3.54175    -24.793173
   3.49113    -24.792938
   3.44050    -24.792582
   3.38988    -24.792027
   3.33926    -24.791240
   3.28864    -24.790376
   3.23802    -24.789283
   3.18740    -24.787916
   3.13678    -24.786255
   3.08616    -24.784404
   3.03554    -24.782306
   2.98492    -24.780033
   2.93430    -24.777560
   2.88368    -24.774991
   2.83305    -24.772546
   2.78243    -24.770413
   2.73181    -24.768906
   2.68119    -24.768252
   2.68119    -24.768252
   2.61919    -24.768693
   2.55720    -24.769625
   2.49520    -24.771204
   2.43320    -24.773438
   2.37120    -24.776213
   2.30921    -24.779568
   2.24721    -24.783452
   2.18521    -24.787839
   2.12321    -24.792484
   2.06122    -24.797272
   1.99922    -24.800285
   1.93722    -24.801656
   1.87522    -24.802676
   1.81323    -24.803384
   1.75123    -24.803832
   1.68923    -24.804075
   1.62723    -24.804087
   1.56524    -24.803961
   1.50324    -24.803732
   1.50324    -24.803732
   1.48257    -24.803646
   1.46191    -24.803558
   1.44124    -24.803491
   1.42057    -24.803503
   1.39991    -24.803410
   1.37924    -24.803318
   1.35858    -24.803210
   1.33791    -24.803124
   1.31724    -24.803051
   1.29658    -24.802975
   1.27591    -24.802873
   1.25525    -24.802810
   1.23458    -24.802754
   1.21392    -24.802709
   1.19325    -24.802668
   1.17258    -24.802635
   1.15192    -24.802612
   1.13125    -24.802598
   1.11059    -24.802592
   1.11059    -24.802592
   1.05213    -24.802391
   0.99368    -24.801812
   0.93523    -24.800859
   0.87678    -24.799512
   0.81833    -24.797817
   0.75987    -24.795791
   0.70142    -24.793472
   0.64297    -24.791061
   0.58452    -24.788293
   0.52607    -24.785517
   0.46762    -24.782705
   0.40916    -24.779926
   0.35071    -24.777204
   0.29226    -24.774770
   0.23381    -24.772551
   0.17536    -24.770786
   0.11690    -24.769477
   0.05845    -24.768664
   0.00000    -24.768252
 
# Band-Index    3
   0.00000    -24.768251
   0.05845    -24.768663
   0.11690    -24.769476
   0.17536    -24.770785
   0.23381    -24.772550
   0.29226    -24.774770
   0.35071    -24.777204
   0.40916    -24.778898
   0.46762    -24.778502
   0.52607    -24.777268
   0.58452    -24.775173
   0.64297    -24.772214
   0.70142    -24.768402
   0.75987    -24.763732
   0.81833    -24.758107
   0.87678    -24.751722
   0.93523    -24.744531
   0.99368    -24.736507
   1.05213    -24.727837
   1.11059    -24.718499
   1.11059    -24.718499
   1.13125    -24.718489
   1.15192    -24.718460
   1.17258    -24.718411
   1.19325    -24.718353
   1.21392    -24.718268
   1.23458    -24.718166
   1.25525    -24.718026
   1.27591    -24.717893
   1.29658    -24.717746
   1.31724    -24.717586
   1.33791    -24.717400
   1.35858    -24.717223
   1.37924    -24.717067
   1.39991    -24.716878
   1.42057    -24.716694
   1.44124    -24.716503
   1.46191    -24.716314
   1.48257    -24.716123
   1.50324    -24.715956
   1.50324    -24.715956
   1.56524    -24.715609
   1.62723    -24.715499
   1.68923    -24.715861
   1.75123    -24.716966
   1.81323    -24.719230
   1.87522    -24.723110
   1.93722    -24.728775
   1.99922    -24.735555
   2.06122    -24.742481
   2.12321    -24.749222
   2.18521    -24.755080
   2.24721    -24.759907
   2.30921    -24.763631
   2.37120    -24.766214
   2.43320    -24.767780
   2.49520    -24.768449
   2.55720    -24.768600
   2.61919    -24.768475
   2.68119    -24.768251
   2.68119    -24.768251
   2.73181    -24.768242
   2.78243    -24.767904
   2.83305    -24.767345
   2.88368    -24.766669
   2.93430    -24.765768
   2.98492    -24.764672
   3.03554    -24.763428
   3.08616    -24.762087
   3.13678    -24.760686
   3.18740    -24.759177
   3.23802    -24.757856
   3.28864    -24.756488
   3.33926    -24.755291
   3.38988    -24.754166
   3.44050    -24.753167
   3.49113    -24.752067
   3.54175    -24.751475
   3.59237    -24.751137
   3.64299    -24.751014
   3.64299    -24.751014
   3.68432    -24.750277
   3.72565    -24.748231
   3.76698    -24.745230
   3.80831    -24.741675
   3.84965    -24.737860
   3.89098    -24.733952
   3.93231    -24.730104
   3.97364    -24.726351
   4.01497    -24.722604
   4.05631    -24.718878
   4.09764    -24.715021
   4.13897    -24.711039
   4.18030    -24.706878
   4.22163    -24.702449
   4.26296    -24.697725
   4.30430    -24.692733
   4.34563    -24.687341
   4.38696    -24.681652
   4.42829    -24.675631
   4.42829    -24.675631
   4.45752    -24.676036
   4.48674    -24.677141
   4.51597    -24.679002
   4.54519    -24.681430
   4.57442    -24.684257
   4.60365    -24.687377
   4.63287    -24.690646
   4.66210    -24.694045
   4.69132    -24.697491
   4.72055    -24.700844
   4.74978    -24.704043
   4.77900    -24.707082
   4.80823    -24.709823
   4.83745    -24.712315
   4.86668    -24.714451
   4.89591    -24.716195
   4.92513    -24.717461
   4.95436    -24.718237
   4.98358    -24.718499
 
# Band-Index    4
   4.98358    -24.718496
   4.95436    -24.718235
   4.92513    -24.717459
   4.89591    -24.716193
   4.86668    -24.714449
   4.83745    -24.712313
   4.80823    -24.709821
   4.77900    -24.707080
   4.74978    -24.704041
   4.72055    -24.700842
   4.69132    -24.697489
   4.66210    -24.694043
   4.63287    -24.690644
   4.60365    -24.687376
   4.57442    -24.684255
   4.54519    -24.681429
   4.51597    -24.679000
   4.48674    -24.677140
   4.45752    -24.676035
   4.42829    -24.675630
   4.42829    -24.675630
   4.38696    -24.669290
   4.34563    -24.662762
   4.30430    -24.656553
   4.26296    -24.652766
   4.22163    -24.654554
   4.18030    -24.658447
   4.13897    -24.662630
   4.09764    -24.666753
   4.05631    -24.670791
   4.01497    -24.674642
   3.97364    -24.678231
   3.93231    -24.681485
   3.89098    -24.684462
   3.84965    -24.687076
   3.80831    -24.689249
   3.76698    -24.691002
   3.72565    -24.692324
   3.68432    -24.693092
   3.64299    -24.693352
   3.64299    -24.693352
   3.59237    -24.693462
   3.54175    -24.693722
   3.49113    -24.694342
   3.44050    -24.695266
   3.38988    -24.696457
   3.33926    -24.697999
   3.28864    -24.699992
   3.23802    -24.702325
   3.18740    -24.705043
   3.13678    -24.708118
   3.08616    -24.711469
   3.03554    -24.715155
   2.98492    -24.719015
   2.93430    -24.722864
   2.88368    -24.726611
   2.83305    -24.730079
   2.78243    -24.732975
   2.73181    -24.734947
   2.68119    -24.735655
   2.68119    -24.735655
   2.61919    -24.734899
   2.55720    -24.732775
   2.49520    -24.729644
   2.43320    -24.725916
   2.37120    -24.721872
   2.30921    -24.717819
   2.24721    -24.713912
   2.18521    -24.710264
   2.12321    -24.706788
   2.06122    -24.703368
   1.99922    -24.699638
   1.93722    -24.694951
   1.87522    -24.688537
   1.81323    -24.679881
   1.75123    -24.669270
   1.68923    -24.657147
   1.62723    -24.644155
   1.56524    -24.642003
   1.50324    -24.656785
   1.50324    -24.656785
   1.48257    -24.661640
   1.46191    -24.666455
   1.44124    -24.671184
   1.42057    -24.675825
   1.39991    -24.680280
   1.37924    -24.684677
   1.35858    -24.688888
   1.33791    -24.692973
   1.31724    -24.696846
   1.29658    -24.700526
   1.27591    -24.703949
   1.25525    -24.707103
   1.23458    -24.709916
   1.21392    -24.712484
   1.19325    -24.714592
   1.17258    -24.716267
   1.15192    -24.717495
   1.13125    -24.718244
   1.11059    -24.718496
   1.11059    -24.718496
   1.05213    -24.708550
   0.99368    -24.698104
   0.93523    -24.687170
   0.87678    -24.675813
   0.81833    -24.665831
   0.75987    -24.674496
   0.70142    -24.682708
   0.64297    -24.690448
   0.58452    -24.697798
   0.52607    -24.704628
   0.46762    -24.710888
   0.40916    -24.716529
   0.35071    -24.721442
   0.29226    -24.725709
   0.23381    -24.729233
   0.17536    -24.732028
   0.11690    -24.734038
   0.05845    -24.735250
   0.00000    -24.735655
 
# Band-Index    5
   0.00000    -24.735655
   0.05845    -24.734174
   0.11690    -24.730112
   0.17536    -24.724195
   0.23381    -24.717034
   0.29226    -24.708817
   0.35071    -24.699948
   0.40916    -24.690501
   0.46762    -24.680518
   0.52607    -24.670129
   0.58452    -24.659420
   0.64297    -24.648472
   0.70142    -24.640226
   0.75987    -24.652252
   0.81833    -24.664137
   0.87678    -24.656989
   0.93523    -24.647927
   0.99368    -24.638731
   1.05213    -24.629421
   1.11059    -24.620085
   1.11059    -24.620085
   1.13125    -24.620119
   1.15192    -24.620221
   1.17258    -24.620389
   1.19325    -24.620623
   1.21392    -24.620923
   1.23458    -24.621289
   1.25525    -24.621696
   1.27591    -24.622194
   1.29658    -24.622757
   1.31724    -24.623382
   1.33791    -24.624045
   1.35858    -24.624800
   1.37924    -24.625618
   1.39991    -24.626494
   1.42057    -24.627434
   1.44124    -24.628424
   1.46191    -24.629435
   1.48257    -24.630494
   1.50324    -24.631660
   1.50324    -24.631660
   1.56524    -24.635523
   1.62723    -24.639804
   1.68923    -24.644511
   1.75123    -24.649651
   1.81323    -24.655164
   1.87522    -24.660850
   1.93722    -24.666928
   1.99922    -24.673274
   2.06122    -24.679762
   2.12321    -24.686466
   2.18521    -24.693235
   2.24721    -24.700023
   2.30921    -24.706754
   2.37120    -24.713367
   2.43320    -24.719773
   2.49520    -24.725634
   2.55720    -24.730693
   2.61919    -24.734303
   2.68119    -24.735655
   2.68119    -24.735655
   2.73181    -24.734947
   2.78243    -24.732975
   2.83305    -24.730079
   2.88368    -24.726611
   2.93430    -24.722864
   2.98492    -24.719015
   3.03554    -24.715155
   3.08616    -24.711469
   3.13678    -24.708118
   3.18740    -24.705043
   3.23802    -24.702325
   3.28864    -24.699992
   3.33926    -24.697999
   3.38988    -24.696457
   3.44050    -24.695266
   3.49113    -24.694342
   3.54175    -24.693722
   3.59237    -24.693462
   3.64299    -24.693352
   3.64299    -24.693352
   3.68432    -24.692964
   3.72565    -24.691797
   3.76698    -24.689810
   3.80831    -24.686993
   3.84965    -24.683426
   3.89098    -24.679020
   3.93231    -24.673882
   3.97364    -24.668113
   4.01497    -24.661843
   4.05631    -24.655217
   4.09764    -24.648330
   4.13897    -24.641351
   4.18030    -24.634370
   4.22163    -24.637581
   4.26296    -24.642248
   4.30430    -24.641041
   4.34563    -24.636978
   4.38696    -24.632384
   4.42829    -24.627621
   4.42829    -24.627621
   4.45752    -24.627453
   4.48674    -24.626935
   4.51597    -24.626243
   4.54519    -24.625441
   4.57442    -24.624607
   4.60365    -24.623812
   4.63287    -24.623093
   4.66210    -24.622481
   4.69132    -24.621981
   4.72055    -24.621537
   4.74978    -24.621168
   4.77900    -24.620869
   4.80823    -24.620654
   4.83745    -24.620465
   4.86668    -24.620288
   4.89591    -24.620219
   4.92513    -24.620144
   4.95436    -24.620100
   4.98358    -24.620085
 
# Band-Index    6
   4.98358    -24.620085
   4.95436    -24.620100
   4.92513    -24.620144
   4.89591    -24.620219
   4.86668    -24.620288
   4.83745    -24.620465
   4.80823    -24.620654
   4.77900    -24.620869
   4.74978    -24.621168
   4.72055    -24.621537
   4.69132    -24.621981
   4.66210    -24.622480
   4.63287    -24.623093
   4.60365    -24.623812
   4.57442    -24.624607
   4.54519    -24.625441
   4.51597    -24.626243
   4.48674    -24.626935
   4.45752    -24.627452
   4.42829    -24.627621
   4.42829    -24.627621
   4.38696    -24.622861
   4.34563    -24.618478
   4.30430    -24.616836
   4.26296    -24.621146
   4.22163    -24.627521
   4.18030    -24.630527
   4.13897    -24.622784
   4.09764    -24.614819
   4.05631    -24.606839
   4.01497    -24.598882
   3.97364    -24.591116
   3.93231    -24.583682
   3.89098    -24.576736
   3.84965    -24.570594
   3.80831    -24.565535
   3.76698    -24.561868
   3.72565    -24.559572
   3.68432    -24.558323
   3.64299    -24.557956
   3.64299    -24.557956
   3.59237    -24.557893
   3.54175    -24.557685
   3.49113    -24.557419
   3.44050    -24.556881
   3.38988    -24.556061
   3.33926    -24.554908
   3.28864    -24.553588
   3.23802    -24.551905
   3.18740    -24.549865
   3.13678    -24.547497
   3.08616    -24.544823
   3.03554    -24.541861
   2.98492    -24.538732
   2.93430    -24.535367
   2.88368    -24.531913
   2.83305    -24.528520
   2.78243    -24.525333
   2.73181    -24.522752
   2.68119    -24.521653
   2.68119    -24.521653
   2.61919    -24.524113
   2.55720    -24.529107
   2.49520    -24.534848
   2.43320    -24.540912
   2.37120    -24.547036
   2.30921    -24.553192
   2.24721    -24.559343
   2.18521    -24.565355
   2.12321    -24.571243
   2.06122    -24.576868
   1.99922    -24.582386
   1.93722    -24.587483
   1.87522    -24.592247
   1.81323    -24.596657
   1.75123    -24.600748
   1.68923    -24.612412
   1.62723    -24.627108
   1.56524    -24.630703
   1.50324    -24.617227
   1.50324    -24.617227
   1.48257    -24.613694
   1.46191    -24.614392
   1.44124    -24.615065
   1.42057    -24.615708
   1.39991    -24.616274
   1.37924    -24.616803
   1.35858    -24.617292
   1.33791    -24.617739
   1.31724    -24.618168
   1.29658    -24.618536
   1.27591    -24.618775
   1.25525    -24.619065
   1.23458    -24.619316
   1.21392    -24.619605
   1.19325    -24.619779
   1.17258    -24.619913
   1.15192    -24.620009
   1.13125    -24.620066
   1.11059    -24.620085
   1.11059    -24.620085
   1.05213    -24.610789
   0.99368    -24.601598
   0.93523    -24.592719
   0.87678    -24.603738
   0.81833    -24.614890
   0.75987    -24.626199
   0.70142    -24.637324
   0.64297    -24.628060
   0.58452    -24.615982
   0.52607    -24.604052
   0.46762    -24.592342
   0.40916    -24.580887
   0.35071    -24.569874
   0.29226    -24.559387
   0.23381    -24.549518
   0.17536    -24.540328
   0.11690    -24.532033
   0.05845    -24.525092
   0.00000    -24.521653
 
# Band-Index    7
   0.00000    -24.521653
   0.05845    -24.521239
   0.11690    -24.520007
   0.17536    -24.518003
   0.23381    -24.515704
   0.29226    -24.518972
   0.35071    -24.522887
   0.40916    -24.527466
   0.46762    -24.532667
   0.52607    -24.538465
   0.58452    -24.544826
   0.64297    -24.551738
   0.70142    -24.559172
   0.75987    -24.566984
   0.81833    -24.575195
   0.87678    -24.583730
   0.93523    -24.592543
   0.99368    -24.581882
   1.05213    -24.571365
   1.11059    -24.561214
   1.11059    -24.561214
   1.13125    -24.561432
   1.15192    -24.562086
   1.17258    -24.563164
   1.19325    -24.564661
   1.21392    -24.566522
   1.23458    -24.568733
   1.25525    -24.571261
   1.27591    -24.574089
   1.29658    -24.577186
   1.31724    -24.580515
   1.33791    -24.584040
   1.35858    -24.587762
   1.37924    -24.591658
   1.39991    -24.595679
   1.42057    -24.599860
   1.44124    -24.604096
   1.46191    -24.608418
   1.48257    -24.612779
   1.50324    -24.612954
   1.50324    -24.612954
   1.56524    -24.610530
   1.62723    -24.607659
   1.68923    -24.604393
   1.75123    -24.598198
   1.81323    -24.584824
   1.87522    -24.572873
   1.93722    -24.564478
   1.99922    -24.560481
   2.06122    -24.557618
   2.12321    -24.554686
   2.18521    -24.551353
   2.24721    -24.547554
   2.30921    -24.543402
   2.37120    -24.538968
   2.43320    -24.534446
   2.49520    -24.529996
   2.55720    -24.525988
   2.61919    -24.522903
   2.68119    -24.521653
   2.68119    -24.521653
   2.73181    -24.522752
   2.78243    -24.525333
   2.83305    -24.528520
   2.88368    -24.531913
   2.93430    -24.535367
   2.98492    -24.538732
   3.03554    -24.541861
   3.08616    -24.544823
   3.13678    -24.547497
   3.18740    -24.549865
   3.23802    -24.551905
