#K-Path(1/A) Energy-Level(eV)
# NKPTS & NBANDS:  94  18
# Band-Index    1
   0.00000    -28.130714
   0.05468    -28.131328
   0.10937    -28.132558
   0.16405    -28.134229
   0.21874    -28.135777
   0.27342    -28.137064
   0.32810    -28.138253
   0.38279    -28.140566
   0.43747    -28.142961
   0.49215    -28.145397
   0.54684    -28.148003
   0.60152    -28.150396
   0.65621    -28.152668
   0.71089    -28.154904
   0.76557    -28.156820
   0.82026    -28.158496
   0.87494    -28.159900
   0.92962    -28.160944
   0.98431    -28.161717
   1.03899    -28.162261
   1.09368    -28.162552
   1.09368    -28.162552
   1.15812    -28.163484
   1.22257    -28.165771
   1.28701    -28.169068
   1.35146    -28.172284
   1.41590    -28.174958
   1.48035    -28.176745
   1.48035    -28.176745
   1.53308    -28.177616
   1.58581    -28.177772
   1.63853    -28.177190
   1.69126    -28.175988
   1.74399    -28.174079
   1.79672    -28.171679
   1.84945    -28.168820
   1.90217    -28.165622
   1.95490    -28.162125
   2.00763    -28.158472
   2.06036    -28.155950
   2.11309    -28.154078
   2.16581    -28.152017
   2.21854    -28.149639
   2.27127    -28.147005
   2.32400    -28.144230
   2.37673    -28.141329
   2.42946    -28.138404
   2.48218    -28.135615
   2.53491    -28.133191
   2.58764    -28.131432
   2.64037    -28.130714
   2.64037    -28.130714
   2.69608    -28.131396
   2.75180    -28.132912
   2.80751    -28.135007
   2.86323    -28.137397
   2.91894    -28.139847
   2.97466    -28.142184
   3.03037    -28.144365
   3.08609    -28.146422
   3.14180    -28.148109
   3.19752    -28.149550
   3.25323    -28.150718
   3.30895    -28.151662
   3.36466    -28.152370
   3.42037    -28.152949
   3.47609    -28.153298
   3.53180    -28.153499
   3.58752    -28.153542
   3.58752    -28.153542
   3.64276    -28.154518
   3.69800    -28.157006
   3.75324    -28.160201
   3.80848    -28.163688
   3.86371    -28.167004
   3.91895    -28.169862
   3.97419    -28.172204
   4.02943    -28.174021
   4.08467    -28.175200
   4.13991    -28.175868
   4.19515    -28.175998
   4.25039    -28.175736
   4.30563    -28.175117
   4.36087    -28.174085
   4.36087    -28.174085
   4.42162    -28.173797
   4.48238    -28.172879
   4.54314    -28.171553
   4.60390    -28.169802
   4.66466    -28.167817
   4.72542    -28.165795
   4.78618    -28.164119
   4.84694    -28.162971
   4.90770    -28.162552
 
# Band-Index    2
   4.90770    -28.162551
   4.84694    -28.162969
   4.78618    -28.164117
   4.72542    -28.165793
   4.66466    -28.167815
   4.60390    -28.169800
   4.54314    -28.171551
   4.48238    -28.172877
   4.42162    -28.173795
   4.36087    -28.174083
   4.36087    -28.174083
   4.30563    -28.172791
   4.25039    -28.171259
   4.19515    -28.169564
   4.13991    -28.167752
   4.08467    -28.165815
   4.02943    -28.163898
   3.97419    -28.161941
   3.91895    -28.160042
   3.86371    -28.158292
   3.80848    -28.156690
   3.75324    -28.155377
   3.69800    -28.154393
   3.64276    -28.153773
   3.58752    -28.153542
   3.58752    -28.153542
   3.53180    -28.153498
   3.47609    -28.153298
   3.42037    -28.152948
   3.36466    -28.152370
   3.30895    -28.151661
   3.25323    -28.150717
   3.19752    -28.149549
   3.14180    -28.148109
   3.08609    -28.146422
   3.03037    -28.144365
   2.97466    -28.142183
   2.91894    -28.139847
   2.86323    -28.137397
   2.80751    -28.135006
   2.75180    -28.132911
   2.69608    -28.131395
   2.64037    -28.130714
   2.64037    -28.130714
   2.58764    -28.131059
   2.53491    -28.131739
   2.48218    -28.132809
   2.42946    -28.134235
   2.37673    -28.136132
   2.32400    -28.138557
   2.27127    -28.141245
   2.21854    -28.144264
   2.16581    -28.147642
   2.11309    -28.151093
   2.06036    -28.154752
   2.00763    -28.157592
   1.95490    -28.159020
   1.90217    -28.160251
   1.84945    -28.161160
   1.79672    -28.161866
   1.74399    -28.162403
   1.69126    -28.162756
   1.63853    -28.162984
   1.58581    -28.163088
   1.53308    -28.163096
   1.48035    -28.163046
   1.48035    -28.163046
   1.41590    -28.162924
   1.35146    -28.162917
   1.28701    -28.162765
   1.22257    -28.162632
   1.15812    -28.162548
   1.09368    -28.162551
   1.09368    -28.162551
   1.03899    -28.162260
   0.98431    -28.161715
   0.92962    -28.160943
   0.87494    -28.159898
   0.82026    -28.158495
   0.76557    -28.156819
   0.71089    -28.154902
   0.65621    -28.152667
   0.60152    -28.150395
   0.54684    -28.148001
   0.49215    -28.145396
   0.43747    -28.142960
   0.38279    -28.140565
   0.32810    -28.138252
   0.27342    -28.136174
   0.21874    -28.134368
   0.16405    -28.132946
   0.10937    -28.131840
   0.05468    -28.131157
   0.00000    -28.130714
 
# Band-Index    3
   0.00000    -28.130711
   0.05468    -28.131156
   0.10937    -28.131839
   0.16405    -28.132944
   0.21874    -28.134367
   0.27342    -28.136173
   0.32810    -28.137916
   0.38279    -28.138157
   0.43747    -28.137880
   0.49215    -28.136924
   0.54684    -28.135437
   0.60152    -28.133186
   0.65621    -28.130249
   0.71089    -28.126657
   0.76557    -28.122363
   0.82026    -28.117407
   0.87494    -28.111809
   0.92962    -28.105515
   0.98431    -28.098643
   1.03899    -28.091362
   1.09368    -28.083564
   1.09368    -28.083564
   1.15812    -28.083495
   1.22257    -28.083230
   1.28701    -28.082978
   1.35146    -28.082607
   1.41590    -28.082229
   1.48035    -28.081898
   1.48035    -28.081898
   1.53308    -28.081792
   1.58581    -28.081888
   1.63853    -28.082299
   1.69126    -28.083140
   1.74399    -28.084728
   1.79672    -28.087204
   1.84945    -28.090722
   1.90217    -28.095285
   1.95490    -28.100396
   2.00763    -28.105681
   2.06036    -28.110832
   2.11309    -28.115518
   2.16581    -28.119712
   2.21854    -28.123188
   2.27127    -28.125913
   2.32400    -28.128019
   2.37673    -28.129446
   2.42946    -28.130376
   2.48218    -28.130858
   2.53491    -28.130975
   2.58764    -28.130950
   2.64037    -28.130711
   2.64037    -28.130711
   2.69608    -28.130734
   2.75180    -28.130385
   2.80751    -28.129670
   2.86323    -28.128839
   2.91894    -28.127812
   2.97466    -28.126812
   3.03037    -28.125501
   3.08609    -28.124115
   3.14180    -28.122797
   3.19752    -28.121382
   3.25323    -28.120025
   3.30895    -28.118731
   3.36466    -28.117642
   3.42037    -28.116742
   3.47609    -28.116066
   3.53180    -28.115637
   3.58752    -28.115079
   3.58752    -28.115079
   3.64276    -28.114303
   3.69800    -28.111187
   3.75324    -28.106905
   3.80848    -28.102186
   3.86371    -28.097369
   3.91895    -28.092599
   3.97419    -28.087846
   4.02943    -28.083073
   4.08467    -28.078071
   4.13991    -28.072839
   4.19515    -28.067136
   4.25039    -28.060963
   4.30563    -28.054287
   4.36087    -28.047083
   4.36087    -28.047083
   4.42162    -28.048575
   4.48238    -28.052507
   4.54314    -28.058006
   4.60390    -28.064084
   4.66466    -28.070128
   4.72542    -28.075453
   4.78618    -28.079743
   4.84694    -28.082546
   4.90770    -28.083564
 
# Band-Index    4
   4.90770    -28.083561
   4.84694    -28.082542
   4.78618    -28.079740
   4.72542    -28.075449
   4.66466    -28.070125
   4.60390    -28.064081
   4.54314    -28.058003
   4.48238    -28.052505
   4.42162    -28.048572
   4.36087    -28.047080
   4.36087    -28.047080
   4.30563    -28.039428
   4.25039    -28.031614
   4.19515    -28.025906
   4.13991    -28.028163
   4.08467    -28.032914
   4.02943    -28.037811
   3.97419    -28.042424
   3.91895    -28.046769
   3.86371    -28.050601
   3.80848    -28.053837
   3.75324    -28.056512
   3.69800    -28.058516
   3.64276    -28.059730
   3.58752    -28.059939
   3.58752    -28.059939
   3.53180    -28.060271
   3.47609    -28.060682
   3.42037    -28.061396
   3.36466    -28.062451
   3.30895    -28.063887
   3.25323    -28.065710
   3.19752    -28.067990
   3.14180    -28.070707
   3.08609    -28.073793
   3.03037    -28.077193
   2.97466    -28.080838
   2.91894    -28.084594
   2.86323    -28.088297
   2.80751    -28.091728
   2.75180    -28.094529
   2.69608    -28.096419
   2.64037    -28.097043
   2.64037    -28.097043
   2.58764    -28.096657
   2.53491    -28.095373
   2.48218    -28.093324
   2.42946    -28.090796
   2.37673    -28.087904
   2.32400    -28.084866
   2.27127    -28.081809
   2.21854    -28.078831
   2.16581    -28.075979
   2.11309    -28.073222
   2.06036    -28.070532
   2.00763    -28.067860
   1.95490    -28.064825
   1.90217    -28.061136
   1.84945    -28.056435
   1.79672    -28.050435
   1.74399    -28.043107
   1.69126    -28.034621
   1.63853    -28.025350
   1.58581    -28.015515
   1.53308    -28.019222
   1.48035    -28.030274
   1.48035    -28.030274
   1.41590    -28.043463
   1.35146    -28.055869
   1.28701    -28.066778
   1.22257    -28.075590
   1.15812    -28.081414
   1.09368    -28.083561
   1.09368    -28.083561
   1.03899    -28.075194
   0.98431    -28.066445
   0.92962    -28.057350
   0.87494    -28.047947
   0.82026    -28.038295
   0.76557    -28.041834
   0.71089    -28.048726
   0.65621    -28.055285
   0.60152    -28.061522
   0.54684    -28.067367
   0.49215    -28.072774
   0.43747    -28.077726
   0.38279    -28.082176
   0.32810    -28.086097
   0.27342    -28.089457
   0.21874    -28.092237
   0.16405    -28.094418
   0.10937    -28.095922
   0.05468    -28.096848
   0.00000    -28.097043
 
# Band-Index    5
   0.00000    -28.097043
   0.05468    -28.096085
   0.10937    -28.093203
   0.16405    -28.088724
   0.21874    -28.083107
   0.27342    -28.076634
   0.32810    -28.069488
   0.38279    -28.061765
   0.43747    -28.053622
   0.49215    -28.045007
   0.54684    -28.036380
   0.60152    -28.027352
   0.65621    -28.018151
   0.71089    -28.018487
   0.76557    -28.028453
   0.82026    -28.034682
   0.87494    -28.027315
   0.92962    -28.019780
   0.98431    -28.012120
   1.03899    -28.004495
   1.09368    -27.996751
   1.09368    -27.996751
   1.15812    -27.997043
   1.22257    -27.997818
   1.28701    -27.999338
   1.35146    -28.001342
   1.41590    -28.003877
   1.48035    -28.006898
   1.48035    -28.006898
   1.53308    -28.009799
   1.58581    -28.013033
   1.63853    -28.016488
   1.69126    -28.020080
   1.74399    -28.024142
   1.79672    -28.028300
   1.84945    -28.032721
   1.90217    -28.037331
   1.95490    -28.042166
   2.00763    -28.047043
   2.06036    -28.051964
   2.11309    -28.057102
   2.16581    -28.062301
   2.21854    -28.067444
   2.27127    -28.072552
   2.32400    -28.077564
   2.37673    -28.082387
   2.42946    -28.086904
   2.48218    -28.090932
   2.53491    -28.094195
   2.58764    -28.096359
   2.64037    -28.097043
   2.64037    -28.097043
   2.69608    -28.096419
   2.75180    -28.094529
   2.80751    -28.091728
   2.86323    -28.088297
   2.91894    -28.084594
   2.97466    -28.080838
   3.03037    -28.077193
   3.08609    -28.073793
   3.14180    -28.070707
   3.19752    -28.067990
   3.25323    -28.065710
   3.30895    -28.063887
   3.36466    -28.062451
   3.42037    -28.061396
   3.47609    -28.060682
   3.53180    -28.060271
   3.58752    -28.059939
   3.58752    -28.059939
   3.64276    -28.059534
   3.69800    -28.057697
   3.75324    -28.054596
   3.80848    -28.050231
   3.86371    -28.044730
   3.91895    -28.038134
   3.97419    -28.030710
   4.02943    -28.022777
   4.08467    -28.014538
   4.13991    -28.010832
   4.19515    -28.016683
   4.25039    -28.014096
   4.30563    -28.008856
   4.36087    -28.003170
   4.36087    -28.003170
   4.42162    -28.002573
   4.48238    -28.001179
   4.54314    -27.999738
   4.60390    -27.998601
   4.66466    -27.997830
   4.72542    -27.997296
   4.78618    -27.996933
   4.84694    -27.996758
   4.90770    -27.996751
 
# Band-Index    6
   4.90770    -27.996750
   4.84694    -27.996756
   4.78618    -27.996932
   4.72542    -27.997295
   4.66466    -27.997829
   4.60390    -27.998599
   4.54314    -27.999736
   4.48238    -28.001177
   4.42162    -28.002571
   4.36087    -28.003169
   4.36087    -28.003169
   4.30563    -27.997613
   4.25039    -27.993879
   4.19515    -27.998599
   4.13991    -28.006379
   4.08467    -28.001902
   4.02943    -27.992430
   3.97419    -27.982818
   3.91895    -27.973309
   3.86371    -27.964287
   3.80848    -27.956084
   3.75324    -27.949378
   3.69800    -27.944950
   3.64276    -27.942750
   3.58752    -27.942097
   3.58752    -27.942097
   3.53180    -27.942077
   3.47609    -27.941890
   3.42037    -27.941540
   3.36466    -27.940974
   3.30895    -27.940149
   3.25323    -27.938910
   3.19752    -27.937433
   3.14180    -27.935608
   3.08609    -27.933413
   3.03037    -27.930803
   2.97466    -27.928010
   2.91894    -27.924955
   2.86323    -27.921834
   2.80751    -27.918724
   2.75180    -27.915833
   2.69608    -27.913470
   2.64037    -27.912391
   2.64037    -27.912391
   2.58764    -27.913853
   2.53491    -27.917101
   2.48218    -27.921102
   2.42946    -27.925421
   2.37673    -27.929876
   2.32400    -27.934419
   2.27127    -27.939015
   2.21854    -27.943667
   2.16581    -27.948180
   2.11309    -27.952522
   2.06036    -27.956794
   2.00763    -27.960938
   1.95490    -27.964973
   1.90217    -27.968756
   1.84945    -27.972317
   1.79672    -27.975660
   1.74399    -27.978776
   1.69126    -27.985955
   1.63853    -27.996882
   1.58581    -28.008027
   1.53308    -28.005363
   1.48035    -27.995136
   1.48035    -27.995136
   1.41590    -27.992365
   1.35146    -27.994015
   1.28701    -27.995212
   1.22257    -27.995982
   1.15812    -27.996482
   1.09368    -27.996750
   1.09368    -27.996750
   1.03899    -27.989023
   0.98431    -27.981268
   0.92962    -27.973736
   0.87494    -27.980820
   0.82026    -27.990116
   0.76557    -27.999475
   0.71089    -28.008841
   0.65621    -28.008437
   0.60152    -27.998421
   0.54684    -27.988481
   0.49215    -27.978668
   0.43747    -27.969142
   0.38279    -27.959848
   0.32810    -27.950891
   0.27342    -27.942311
   0.21874    -27.934309
   0.16405    -27.926937
   0.10937    -27.920252
   0.05468    -27.914941
   0.00000    -27.912391
 
# Band-Index    7
   0.00000    -27.912391
   0.05468    -27.912274
   0.10937    -27.911377
   0.16405    -27.909876
   0.21874    -27.907747
   0.27342    -27.907071
   0.32810    -27.910203
   0.38279    -27.913823
   0.43747    -27.917990
   0.49215    -27.922640
   0.54684    -27.927871
   0.60152    -27.933412
   0.65621    -27.939349
   0.71089    -27.945674
   0.76557    -27.952302
   0.82026    -27.959217
   0.87494    -27.966380
   0.92962    -27.971569
   0.98431    -27.962475
   1.03899    -27.953810
   1.09368    -27.945386
   1.09368    -27.945386
   1.15812    -27.947338
   1.22257    -27.952903
   1.28701    -27.961266
   1.35146    -27.971484
   1.41590    -27.982952
   1.48035    -27.990444
   1.48035    -27.990444
   1.53308    -27.988668
   1.58581    -27.986572
   1.63853    -27.984217
   1.69126    -27.981608
   1.74399    -27.975482
   1.79672    -27.965652
   1.84945    -27.956954
   1.90217    -27.950402
   1.95490    -27.946540
   2.00763    -27.943986
   2.06036    -27.941663
   2.11309    -27.939233
   2.16581    -27.936656
   2.21854    -27.933806
   2.27127    -27.930733
   2.32400    -27.927516
   2.37673    -27.924228
   2.42946    -27.920986
   2.48218    -27.917883
   2.53491    -27.915193
   2.58764    -27.913309
   2.64037    -27.912391
   2.64037    -27.912391
   2.69608    -27.913470
   2.75180    -27.915833
   2.80751    -27.918724
   2.86323    -27.921834
   2.91894    -27.924955
   2.97466    -27.928010
   3.03037    -27.930802
   3.08609    -27.933413
   3.14180    -27.935608
   3.19752    -27.937433
   3.25323    -27.938910
   3.30895    -27.940149
   3.36466    -27.940974
   3.42037    -27.941540
   3.47609    -27.941890
   3.53180    -27.942076
   3.58752    -27.942097
   3.58752    -27.942097
   3.64276    -27.942633
   3.69800    -27.944117
   3.75324    -27.946353
   3.80848    -27.949541
   3.86371    -27.953401
   3.91895    -27.957773
   3.97419    -27.962583
   4.02943    -27.967734
   4.08467    -27.973111
   4.13991    -27.978659
   4.19515    -27.983962
   4.25039    -27.986818
   4.30563    -27.981676
   4.36087    -27.975162
   4.36087    -27.975162
   4.42162    -27.974319
   4.48238    -27.971654
   4.54314    -27.967694
   4.60390    -27.962725
   4.66466    -27.957534
   4.72542    -27.952735
   4.78618    -27.948816
   4.84694    -27.946273
   4.90770    -27.945386
 
# Band-Index    8
   4.90770    -27.945383
   4.84694    -27.946270
   4.78618    -27.948814
   4.72542    -27.952733
   4.66466    -27.957531
   4.60390    -27.962722
   4.54314    -27.967692
   4.48238    -27.971652
   4.42162    -27.974317
   4.36087    -27.975160
   4.36087    -27.975160
   4.30563    -27.969035
   4.25039    -27.963452
   4.19515    -27.958514
   4.13991    -27.954213
   4.08467    -27.950461
   4.02943    -27.947262
   3.97419    -27.944528
   3.91895    -27.942207
   3.86371    -27.940170
   3.80848    -27.938201
   3.75324    -27.936023
   3.69800    -27.933369
   3.64276    -27.930803
   3.58752    -27.929658
   3.58752    -27.929658
   3.53180    -27.929568
   3.47609    -27.929117
   3.42037    -27.928388
   3.36466    -27.927411
   3.30895    -27.926223
   3.25323    -27.924906
   3.19752    -27.923424
   3.14180    -27.921862
   3.08609    -27.920257
   3.03037    -27.918723
   2.97466    -27.917279
   2.91894    -27.915944
   2.86323    -27.914812
   2.80751    -27.913887
   2.75180    -27.913204
   2.69608    -27.912679
   2.64037    -27.912388
   2.64037    -27.912388
   2.58764    -27.912218
   2.53491    -27.911418
   2.48218    -27.909916
   2.42946    -27.907823
   2.37673    -27.905162
   2.32400    -27.901975
   2.27127    -27.903194
   2.21854    -27.906337
   2.16581    -27.910370
   2.11309    -27.915187
   2.06036    -27.920846
   2.00763    -27.927176
   1.95490    -27.933774
   1.90217    -27.939482
   1.84945    -27.942928
   1.79672    -27.944643
   1.74399    -27.945574
   1.69126    -27.946050
   1.63853    -27.946317
   1.58581    -27.946408
   1.53308    -27.946381
   1.48035    -27.946273
   1.48035    -27.946273
   1.41590    -27.946094
   1.35146    -27.945891
   1.28701    -27.945699
   1.22257    -27.945515
   1.15812    -27.945418
   1.09368    -27.945383
   1.09368    -27.945383
   1.03899    -27.937300
   0.98431    -27.929630
   0.92962    -27.922427
   0.87494    -27.915774
   0.82026    -27.909656
   0.76557    -27.904142
   0.71089    -27.899281
   0.65621    -27.895104
   0.60152    -27.891649
   0.54684    -27.888940
   0.49215    -27.891525
   0.43747    -27.895242
   0.38279    -27.898794
   0.32810    -27.902121
   0.27342    -27.905135
   0.21874    -27.907746
   0.16405    -27.909875
   0.10937    -27.911376
   0.05468    -27.912272
   0.00000    -27.912388
 
# Band-Index    9
   0.00000    -27.899699
   0.05468    -27.900115
   0.10937    -27.900995
   0.16405    -27.902455
   0.21874    -27.904485
   0.27342    -27.905133
   0.32810    -27.902120
   0.38279    -27.898793
   0.43747    -27.895240
   0.49215    -27.891524
   0.54684    -27.887937
   0.60152    -27.884296
   0.65621    -27.880793
   0.71089    -27.877535
   0.76557    -27.874536
   0.82026    -27.871890
   0.87494    -27.869646
   0.92962    -27.867826
   0.98431    -27.866467
   1.03899    -27.865749
   1.09368    -27.865490
   1.09368    -27.865490
   1.15812    -27.865458
   1.22257    -27.865312
   1.28701    -27.865179
   1.35146    -27.865018
   1.41590    -27.864845
   1.48035    -27.864706
   1.48035    -27.864707
   1.53308    -27.864660
   1.58581    -27.864709
   1.63853    -27.864836
   1.69126    -27.865069
   1.74399    -27.865466
   1.79672    -27.865947
   1.84945    -27.866671
   1.90217    -27.867596
   1.95490    -27.871098
